title:apple_29, start timestamp:1768372708.226114, stop timestamp:1768372739.147542, headset type:EPOCX, headset serial:E5020E3B, headset firmware:730, channels:156, sampling rate:eeg_128;pm_0.1;pow_8, samples:3961      , version:2.2, 
Timestamp,OriginalTimestamp,EEG.Counter,EEG.Interpolated,EEG.AF3,EEG.F7,EEG.F3,EEG.FC5,EEG.T7,EEG.P7,EEG.O1,EEG.O2,EEG.P8,EEG.T8,EEG.FC6,EEG.F4,EEG.F8,EEG.AF4,EEG.RawCq,EEG.Battery,EEG.BatteryPercent,MarkerIndex,MarkerType,MarkerValueInt,EEG.MarkerHardware,CQ.AF3,CQ.F7,CQ.F3,CQ.FC5,CQ.T7,CQ.P7,CQ.O1,CQ.O2,CQ.P8,CQ.T8,CQ.FC6,CQ.F4,CQ.F8,CQ.AF4,CQ.Overall,EQ.SampleRateQuality,EQ.OVERALL,EQ.AF3,EQ.F7,EQ.F3,EQ.FC5,EQ.T7,EQ.P7,EQ.O1,EQ.O2,EQ.P8,EQ.T8,EQ.FC6,EQ.F4,EQ.F8,EQ.AF4,PM.Attention.IsActive,PM.Attention.Scaled,PM.Attention.Raw,PM.Attention.Min,PM.Attention.Max,PM.Engagement.IsActive,PM.Engagement.Scaled,PM.Engagement.Raw,PM.Engagement.Min,PM.Engagement.Max,PM.Excitement.IsActive,PM.Excitement.Scaled,PM.Excitement.Raw,PM.Excitement.Min,PM.Excitement.Max,PM.LongTermExcitement,PM.Stress.IsActive,PM.Stress.Scaled,PM.Stress.Raw,PM.Stress.Min,PM.Stress.Max,PM.Relaxation.IsActive,PM.Relaxation.Scaled,PM.Relaxation.Raw,PM.Relaxation.Min,PM.Relaxation.Max,PM.Interest.IsActive,PM.Interest.Scaled,PM.Interest.Raw,PM.Interest.Min,PM.Interest.Max,POW.AF3.Theta,POW.AF3.Alpha,POW.AF3.BetaL,POW.AF3.BetaH,POW.AF3.Gamma,POW.F7.Theta,POW.F7.Alpha,POW.F7.BetaL,POW.F7.BetaH,POW.F7.Gamma,POW.F3.Theta,POW.F3.Alpha,POW.F3.BetaL,POW.F3.BetaH,POW.F3.Gamma,POW.FC5.Theta,POW.FC5.Alpha,POW.FC5.BetaL,POW.FC5.BetaH,POW.FC5.Gamma,POW.T7.Theta,POW.T7.Alpha,POW.T7.BetaL,POW.T7.BetaH,POW.T7.Gamma,POW.P7.Theta,POW.P7.Alpha,POW.P7.BetaL,POW.P7.BetaH,POW.P7.Gamma,POW.O1.Theta,POW.O1.Alpha,POW.O1.BetaL,POW.O1.BetaH,POW.O1.Gamma,POW.O2.Theta,POW.O2.Alpha,POW.O2.BetaL,POW.O2.BetaH,POW.O2.Gamma,POW.P8.Theta,POW.P8.Alpha,POW.P8.BetaL,POW.P8.BetaH,POW.P8.Gamma,POW.T8.Theta,POW.T8.Alpha,POW.T8.BetaL,POW.T8.BetaH,POW.T8.Gamma,POW.FC6.Theta,POW.FC6.Alpha,POW.FC6.BetaL,POW.FC6.BetaH,POW.FC6.Gamma,POW.F4.Theta,POW.F4.Alpha,POW.F4.BetaL,POW.F4.BetaH,POW.F4.Gamma,POW.F8.Theta,POW.F8.Alpha,POW.F8.BetaL,POW.F8.BetaH,POW.F8.Gamma,POW.AF4.Theta,POW.AF4.Alpha,POW.AF4.BetaL,POW.AF4.BetaH,POW.AF4.Gamma
1768372708.226114,1768372708.226691,77.000000,0.000000,4357.692383,4356.922852,4376.538574,4391.538574,4327.051270,4310.384766,4342.820313,4337.307617,4297.051270,4291.153809,4553.333496,4554.102539,4409.615234,4394.358887,5420.000000,1.000000,34.000000,,,,0.000000,4.000000,4.000000,4.000000,4.000000,4.000000,4.000000,4.000000,4.000000,4.000000,4.000000,4.000000,4.000000,4.000000,4.000000,100.000000,,,,,,,,,,,,,,,,,,,,,,,,,,,,,,,,,,,,,,,,,,,,,,,,,,,,,,,,,,,,,,,,,,,,,,,,,,,,,,,,,,,,,,,,,,,,,,,,,,,,,,,,,,,,,,,,,,,,,
1768372708.233922,1768372708.234600,78.000000,0.000000,4359.230957,4357.948730,4383.589844,4393.077148,4328.333496,4309.487305,4338.205078,4336.922852,4296.153809,4292.692383,4553.333496,4550.641113,4408.077148,4394.871582,4380.000000,1.000000,34.000000,,,,0.000000,4.000000,4.000000,4.000000,4.000000,4.000000,4.000000,4.000000,4.000000,4.000000,4.000000,4.000000,4.000000,4.000000,4.000000,100.000000,1.000000,75.000000,4.000000,4.000000,4.000000,4.000000,1.000000,4.000000,4.000000,4.000000,4.000000,4.000000,4.000000,4.000000,4.000000,4.000000,,,,,,,,,,,,,,,,,,,,,,,,,,,,,,,,0.477551,0.564374,0.082719,0.091621,0.117562,0.992149,0.727748,0.146972,0.153853,0.085330,0.746237,0.317105,0.097498,0.099487,0.128756,0.421081,0.444145,0.057130,0.125077,0.058359,0.284328,0.154662,0.039979,0.092767,0.055192,0.257688,0.202178,0.113142,0.159383,0.184979,0.337893,0.191884,0.147804,0.128964,0.201047,0.174352,0.094770,0.152727,0.057814,0.094094,0.158458,0.157156,0.167099,0.120434,0.094170,0.322113,0.233220,0.204712,0.181738,0.131149,0.392507,0.767894,0.200422,0.225979,0.207943,0.708343,0.631801,0.143653,0.272279,0.133806,0.582176,0.753468,0.260272,0.164559,0.134522,0.556803,0.945549,0.191392,0.184758,0.220938
1768372708.241731,1768372708.242408,79.000000,0.000000,4359.358887,4357.948730,4381.666504,4386.025879,4326.538574,4305.256348,4331.794922,4335.897461,4296.410156,4297.948730,4554.487305,4553.077148,4406.282227,4394.615234,4676.000000,1.000000,34.000000,,,,0.000000,4.000000,4.000000,4.000000,4.000000,4.000000,4.000000,4.000000,4.000000,4.000000,4.000000,4.000000,4.000000,4.000000,4.000000,100.000000,,,,,,,,,,,,,,,,,,,,,,,,,,,,,,,,,,,,,,,,,,,,,,,,,,,,,,,,,,,,,,,,,,,,,,,,,,,,,,,,,,,,,,,,,,,,,,,,,,,,,,,,,,,,,,,,,,,,,
1768372708.249539,1768372708.250416,80.000000,0.000000,4358.205078,4355.384766,4371.922852,4380.000000,4321.666504,4304.615234,4332.692383,4334.358887,4295.000000,4304.230957,4555.128418,4556.794922,4409.615234,4394.871582,5010.000000,1.000000,34.000000,,,,0.000000,4.000000,4.000000,4.000000,4.000000,4.000000,4.000000,4.000000,4.000000,4.000000,4.000000,4.000000,4.000000,4.000000,4.000000,100.000000,,,,,,,,,,,,,,,,,,,,,,,,,,,,,,,,,,,,,,,,,,,,,,,,,,,,,,,,,,,,,,,,,,,,,,,,,,,,,,,,,,,,,,,,,,,,,,,,,,,,,,,,,,,,,,,,,,,,,
1768372708.257347,1768372708.258225,81.000000,0.000000,4358.205078,4350.897461,4369.358887,4378.846191,4316.922852,4307.563965,4337.820313,4340.000000,4295.000000,4307.051270,4559.487305,4566.794922,4413.717773,4397.307617,5420.000000,1.000000,34.000000,,,,0.000000,4.000000,4.000000,4.000000,4.000000,4.000000,4.000000,4.000000,4.000000,4.000000,4.000000,4.000000,4.000000,4.000000,4.000000,100.000000,,,,,,,,,,,,,,,,,,,,,,,,,,,,,,,,,,,,,,,,,,,,,,,,,,,,,,,,,,,,,,,,,,,,,,,,,,,,,,,,,,,,,,,,,,,,,,,,,,,,,,,,,,,,,,,,,,,,,
1768372708.265156,1768372708.265933,82.000000,0.000000,4357.820313,4345.000000,4376.410156,4378.461426,4315.512695,4308.333496,4339.871582,4348.717773,4300.000000,4307.820313,4568.589844,4575.128418,4413.589844,4400.384766,4380.000000,1.000000,34.000000,,,,0.000000,4.000000,4.000000,4.000000,4.000000,4.000000,4.000000,4.000000,4.000000,4.000000,4.000000,4.000000,4.000000,4.000000,4.000000,100.000000,,,,,,,,,,,,,,,,,,,,,,,,,,,,,,,,,,,,,,,,,,,,,,,,,,,,,,,,,,,,,,,,,,,,,,,,,,,,,,,,,,,,,,,,,,,,,,,,,,,,,,,,,,,,,,,,,,,,,
1768372708.272964,1768372708.273742,83.000000,0.000000,4354.615234,4340.000000,4377.307617,4376.538574,4313.205078,4308.461426,4337.820313,4346.666504,4300.128418,4305.641113,4565.384766,4566.666504,4412.179688,4400.000000,4676.000000,1.000000,34.000000,,,,0.000000,4.000000,4.000000,4.000000,4.000000,4.000000,4.000000,4.000000,4.000000,4.000000,4.000000,4.000000,4.000000,4.000000,4.000000,100.000000,,,,,,,,,,,,,,,,,,,,,,,,,,,,,,,,,,,,,,,,,,,,,,,,,,,,,,,,,,,,,,,,,,,,,,,,,,,,,,,,,,,,,,,,,,,,,,,,,,,,,,,,,,,,,,,,,,,,,
1768372708.280773,1768372708.281350,84.000000,0.000000,4352.436035,4341.922852,4371.922852,4374.487305,4312.436035,4307.563965,4334.871582,4342.051270,4293.205078,4300.641113,4555.769043,4556.794922,4412.307617,4396.410156,5010.000000,1.000000,34.000000,,,,0.000000,4.000000,4.000000,4.000000,4.000000,4.000000,4.000000,4.000000,4.000000,4.000000,4.000000,4.000000,4.000000,4.000000,4.000000,100.000000,,,,,,,,,,,,,,,,,,,,,,,,,,,,,,,,,,,,,,,,,,,,,,,,,,,,,,,,,,,,,,,,,,,,,,,,,,,,,,,,,,,,,,,,,,,,,,,,,,,,,,,,,,,,,,,,,,,,,
1768372708.288581,1768372708.289159,85.000000,0.000000,4355.512695,4348.205078,4377.563965,4374.615234,4318.077148,4306.794922,4340.256348,4347.051270,4299.102539,4302.307617,4561.794922,4563.333496,4414.102539,4399.743652,5420.000000,1.000000,34.000000,,,,0.000000,4.000000,4.000000,4.000000,4.000000,4.000000,4.000000,4.000000,4.000000,4.000000,4.000000,4.000000,4.000000,4.000000,4.000000,100.000000,,,,,,,,,,,,,,,,,,,,,,,,,,,,,,,,,,,,,,,,,,,,,,,,,,,,,,,,,,,,,,,,,,,,,,,,,,,,,,,,,,,,,,,,,,,,,,,,,,,,,,,,,,,,,,,,,,,,,
1768372708.296389,1768372708.296867,86.000000,0.000000,4359.102539,4346.922852,4383.717773,4377.051270,4318.717773,4308.717773,4341.538574,4352.692383,4311.025879,4312.692383,4572.051270,4567.563965,4415.384766,4404.743652,4380.000000,1.000000,34.000000,,,,0.000000,4.000000,4.000000,4.000000,4.000000,4.000000,4.000000,4.000000,4.000000,4.000000,4.000000,4.000000,4.000000,4.000000,4.000000,100.000000,,,,,,,,,,,,,,,,,,,,,,,,,,,,,,,,,,,,,,,,,,,,,,,,,,,,,,,,,,,,,,,,,,,,,,,,,,,,,,,,,,,,,,,,,,,,,,,,,,,,,,,,,,,,,,,,,,,,,
1768372708.304198,1768372708.304676,87.000000,0.000000,4357.948730,4339.615234,4377.820313,4374.487305,4310.897461,4306.538574,4330.897461,4350.384766,4306.410156,4314.358887,4569.871582,4566.538574,4414.487305,4405.128418,4676.000000,1.000000,34.000000,,,,0.000000,4.000000,4.000000,4.000000,4.000000,4.000000,4.000000,4.000000,4.000000,4.000000,4.000000,4.000000,4.000000,4.000000,4.000000,100.000000,,,,,,,,,,,,,,,,,,,,,,,,,,,,,,,,,,,,,,,,,,,,,,,,,,,,,,,,,,,,,,,,,,,,,,,,,,,,,,,,,,,,,,,,,,,,,,,,,,,,,,,,,,,,,,,,,,,,,
1768372708.312006,1768372708.312684,88.000000,0.000000,4357.820313,4338.589844,4374.102539,4370.128418,4309.230957,4303.077148,4330.256348,4345.897461,4300.128418,4307.563965,4569.871582,4571.666504,4413.589844,4409.743652,5010.000000,1.000000,34.000000,,,,0.000000,4.000000,4.000000,4.000000,4.000000,4.000000,4.000000,4.000000,4.000000,4.000000,4.000000,4.000000,4.000000,4.000000,4.000000,100.000000,,,,,,,,,,,,,,,,,,,,,,,,,,,,,,,,,,,,,,,,,,,,,,,,,,,,,,,,,,,,,,,,,,,,,,,,,,,,,,,,,,,,,,,,,,,,,,,,,,,,,,,,,,,,,,,,,,,,,
1768372708.319815,1768372708.320493,89.000000,0.000000,4358.333496,4339.615234,4375.641113,4369.102539,4313.589844,4304.871582,4335.512695,4347.563965,4304.102539,4310.384766,4573.846191,4574.102539,4413.974121,4411.922852,5420.000000,1.000000,34.000000,,,,0.000000,4.000000,4.000000,4.000000,4.000000,4.000000,4.000000,4.000000,4.000000,4.000000,4.000000,4.000000,4.000000,4.000000,4.000000,100.000000,,,,,,,,,,,,,,,,,,,,,,,,,,,,,,,,,,,,,,,,,,,,,,,,,,,,,,,,,,,,,,,,,,,,,,,,,,,,,,,,,,,,,,,,,,,,,,,,,,,,,,,,,,,,,,,,,,,,,
1768372708.327623,1768372708.328401,90.000000,0.000000,4351.538574,4334.230957,4372.563965,4367.179688,4312.307617,4302.307617,4328.333496,4350.000000,4301.794922,4314.358887,4565.000000,4564.358887,4412.179688,4405.641113,4380.000000,1.000000,34.000000,,,,0.000000,4.000000,4.000000,4.000000,4.000000,4.000000,4.000000,4.000000,4.000000,4.000000,4.000000,4.000000,4.000000,4.000000,4.000000,100.000000,,,,,,,,,,,,,,,,,,,,,,,,,,,,,,,,,,,,,,,,,,,,,,,,,,,,,,,,,,,,,,,,,,,,,,,,,,,,,,,,,,,,,,,,,,,,,,,,,,,,,,,,,,,,,,,,,,,,,
1768372708.335432,1768372708.336209,91.000000,0.000000,4348.077148,4332.948730,4370.769043,4364.743652,4310.256348,4298.589844,4323.589844,4344.615234,4295.000000,4311.794922,4555.000000,4554.102539,4407.948730,4403.974121,4676.000000,1.000000,34.000000,,,,0.000000,4.000000,4.000000,4.000000,4.000000,4.000000,4.000000,4.000000,4.000000,4.000000,4.000000,4.000000,4.000000,4.000000,4.000000,100.000000,,,,,,,,,,,,,,,,,,,,,,,,,,,,,,,,,,,,,,,,,,,,,,,,,,,,,,,,,,,,,,,,,,,,,,,,,,,,,,,,,,,,,,,,,,,,,,,,,,,,,,,,,,,,,,,,,,,,,
1768372708.343240,1768372708.344218,92.000000,0.000000,4354.615234,4337.948730,4373.846191,4366.282227,4313.333496,4303.205078,4330.769043,4341.666504,4293.589844,4308.974121,4555.128418,4553.461426,4403.846191,4407.307617,5010.000000,1.000000,34.000000,,,,0.000000,4.000000,4.000000,4.000000,4.000000,4.000000,4.000000,4.000000,4.000000,4.000000,4.000000,4.000000,4.000000,4.000000,4.000000,100.000000,,,,,,,,,,,,,,,,,,,,,,,,,,,,,,,,,,,,,,,,,,,,,,,,,,,,,,,,,,,,,,,,,,,,,,,,,,,,,,,,,,,,,,,,,,,,,,,,,,,,,,,,,,,,,,,,,,,,,
1768372708.351049,1768372708.352026,93.000000,0.000000,4357.051270,4339.487305,4371.410156,4368.589844,4315.000000,4305.000000,4330.512695,4347.179688,4293.717773,4308.461426,4554.230957,4555.384766,4401.410156,4404.230957,5420.000000,1.000000,34.000000,,,,0.000000,4.000000,4.000000,4.000000,4.000000,4.000000,4.000000,4.000000,4.000000,4.000000,4.000000,4.000000,4.000000,4.000000,4.000000,100.000000,,,,,,,,,,,,,,,,,,,,,,,,,,,,,,,,,,,,,,,,,,,,,,,,,,,,,,,,,,,,,,,,,,,,,,,,,,,,,,,,,,,,,,,,,,,,,,,,,,,,,,,,,,,,,,,,,,,,,
1768372708.358857,1768372708.359735,94.000000,0.000000,4353.589844,4338.333496,4366.282227,4366.538574,4319.230957,4305.128418,4326.922852,4351.410156,4294.743652,4311.538574,4553.461426,4554.743652,4401.153809,4403.333496,4380.000000,1.000000,34.000000,,,,0.000000,4.000000,4.000000,4.000000,4.000000,4.000000,4.000000,4.000000,4.000000,4.000000,4.000000,4.000000,4.000000,4.000000,4.000000,100.000000,,,,,,,,,,,,,,,,,,,,,,,,,,,,,,,,,,,,,,,,,,,,,,,,0.372205,0.564711,0.072364,0.105571,0.115586,1.146312,0.807270,0.147374,0.160588,0.082040,0.564924,0.253011,0.099784,0.140136,0.120581,0.479695,0.484339,0.062866,0.146668,0.057451,0.257595,0.138869,0.037532,0.084505,0.045876,0.246664,0.182884,0.100307,0.151230,0.180483,0.360870,0.189242,0.142396,0.136989,0.207334,0.176169,0.125992,0.146660,0.066017,0.098557,0.164340,0.206405,0.188573,0.142811,0.095445,0.338324,0.232964,0.247268,0.233203,0.128599,0.380484,0.731842,0.248746,0.275997,0.197185,0.606995,0.628888,0.170492,0.340138,0.143707,0.570587,0.743886,0.280987,0.223291,0.131905,0.360658,0.918593,0.171949,0.235865,0.215846
1768372708.366665,1768372708.367543,95.000000,0.000000,4352.948730,4340.384766,4367.436035,4363.461426,4324.102539,4310.897461,4333.333496,4348.846191,4298.589844,4312.692383,4556.538574,4556.666504,4405.769043,4406.538574,4676.000000,1.000000,34.000000,,,,0.000000,4.000000,4.000000,4.000000,4.000000,4.000000,4.000000,4.000000,4.000000,4.000000,4.000000,4.000000,4.000000,4.000000,4.000000,100.000000,,,,,,,,,,,,,,,,,,,,,,,,,,,,,,,,,,,,,,,,,,,,,,,,,,,,,,,,,,,,,,,,,,,,,,,,,,,,,,,,,,,,,,,,,,,,,,,,,,,,,,,,,,,,,,,,,,,,,
1768372708.374474,1768372708.375551,96.000000,0.000000,4349.871582,4338.974121,4365.769043,4362.436035,4318.717773,4307.051270,4332.436035,4345.000000,4297.179688,4311.538574,4557.179688,4556.410156,4409.615234,4401.410156,5010.000000,1.000000,34.000000,,,,0.000000,4.000000,4.000000,4.000000,4.000000,4.000000,4.000000,4.000000,4.000000,4.000000,4.000000,4.000000,4.000000,4.000000,4.000000,100.000000,,,,,,,,,,,,,,,,,,,,,,,,,,,,,,,,,,,,,,,,,,,,,,,,,,,,,,,,,,,,,,,,,,,,,,,,,,,,,,,,,,,,,,,,,,,,,,,,,,,,,,,,,,,,,,,,,,,,,
1768372708.382282,1768372708.383360,97.000000,0.000000,4343.205078,4330.128418,4356.794922,4357.948730,4309.871582,4293.717773,4321.666504,4342.051270,4294.871582,4313.461426,4552.948730,4550.769043,4404.487305,4393.846191,5420.000000,1.000000,34.000000,,,,0.000000,4.000000,4.000000,4.000000,4.000000,4.000000,4.000000,4.000000,4.000000,4.000000,4.000000,4.000000,4.000000,4.000000,4.000000,100.000000,,,,,,,,,,,,,,,,,,,,,,,,,,,,,,,,,,,,,,,,,,,,,,,,,,,,,,,,,,,,,,,,,,,,,,,,,,,,,,,,,,,,,,,,,,,,,,,,,,,,,,,,,,,,,,,,,,,,,
1768372708.390091,1768372708.391068,98.000000,0.000000,4343.077148,4329.743652,4355.256348,4357.820313,4310.384766,4296.282227,4320.512695,4342.307617,4298.589844,4321.538574,4553.077148,4551.666504,4400.641113,4399.230957,4380.000000,1.000000,34.000000,,,,0.000000,4.000000,4.000000,4.000000,4.000000,4.000000,4.000000,4.000000,4.000000,4.000000,4.000000,4.000000,4.000000,4.000000,4.000000,100.000000,,,,,,,,,,,,,,,,,,,,,,,,,,,,,,,,,,,,,,,,,,,,,,,,,,,,,,,,,,,,,,,,,,,,,,,,,,,,,,,,,,,,,,,,,,,,,,,,,,,,,,,,,,,,,,,,,,,,,
1768372708.397899,1768372708.398877,99.000000,0.000000,4345.256348,4334.871582,4359.358887,4361.922852,4312.563965,4305.000000,4327.820313,4343.205078,4300.256348,4322.692383,4556.153809,4555.384766,4403.461426,4404.102539,4676.000000,1.000000,34.000000,,,,0.000000,4.000000,4.000000,4.000000,4.000000,4.000000,4.000000,4.000000,4.000000,4.000000,4.000000,4.000000,4.000000,4.000000,4.000000,100.000000,,,,,,,,,,,,,,,,,,,,,,,,,,,,,,,,,,,,,,,,,,,,,,,,,,,,,,,,,,,,,,,,,,,,,,,,,,,,,,,,,,,,,,,,,,,,,,,,,,,,,,,,,,,,,,,,,,,,,
1768372708.405708,1768372708.406485,100.000000,0.000000,4342.436035,4328.589844,4355.256348,4356.282227,4309.743652,4298.205078,4323.974121,4339.871582,4295.769043,4311.922852,4549.230957,4541.282227,4400.384766,4395.000000,5010.000000,1.000000,34.000000,,,,0.000000,4.000000,4.000000,4.000000,4.000000,4.000000,4.000000,4.000000,4.000000,4.000000,4.000000,4.000000,4.000000,4.000000,4.000000,100.000000,,,,,,,,,,,,,,,,,,,,,,,,,,,,,,,,,,,,,,,,,,,,,,,,,,,,,,,,,,,,,,,,,,,,,,,,,,,,,,,,,,,,,,,,,,,,,,,,,,,,,,,,,,,,,,,,,,,,,
1768372708.413516,1768372708.414294,101.000000,0.000000,4341.794922,4323.461426,4357.179688,4350.512695,4311.410156,4292.307617,4318.077148,4339.358887,4293.205078,4311.538574,4542.436035,4531.410156,4395.000000,4390.641113,5420.000000,1.000000,34.000000,,,,0.000000,4.000000,4.000000,4.000000,4.000000,4.000000,4.000000,4.000000,4.000000,4.000000,4.000000,4.000000,4.000000,4.000000,4.000000,100.000000,,,,,,,,,,,,,,,,,,,,,,,,,,,,,,,,,,,,,,,,,,,,,,,,,,,,,,,,,,,,,,,,,,,,,,,,,,,,,,,,,,,,,,,,,,,,,,,,,,,,,,,,,,,,,,,,,,,,,
1768372708.421325,1768372708.422002,102.000000,0.000000,4343.717773,4328.974121,4364.230957,4356.025879,4315.384766,4302.179688,4324.615234,4346.410156,4296.410156,4324.102539,4546.410156,4543.077148,4396.794922,4398.461426,4380.000000,1.000000,34.000000,,,,0.000000,4.000000,4.000000,4.000000,4.000000,4.000000,4.000000,4.000000,4.000000,4.000000,4.000000,4.000000,4.000000,4.000000,4.000000,100.000000,,,,,,,,,,,,,,,,,,,,,,,,,,,,,,,,,,,,,,,,,,,,,,,,,,,,,,,,,,,,,,,,,,,,,,,,,,,,,,,,,,,,,,,,,,,,,,,,,,,,,,,,,,,,,,,,,,,,,
1768372708.429133,1768372708.429811,103.000000,0.000000,4342.179688,4328.974121,4360.641113,4356.538574,4312.563965,4308.461426,4329.230957,4349.102539,4297.051270,4328.077148,4551.282227,4548.846191,4397.563965,4397.436035,4676.000000,1.000000,34.000000,,,,0.000000,4.000000,4.000000,4.000000,4.000000,4.000000,4.000000,4.000000,4.000000,4.000000,4.000000,4.000000,4.000000,4.000000,4.000000,100.000000,,,,,,,,,,,,,,,,,,,,,,,,,,,,,,,,,,,,,,,,,,,,,,,,,,,,,,,,,,,,,,,,,,,,,,,,,,,,,,,,,,,,,,,,,,,,,,,,,,,,,,,,,,,,,,,,,,,,,
1768372708.436942,1768372708.437819,104.000000,0.000000,4341.794922,4325.897461,4358.589844,4353.717773,4308.974121,4302.307617,4326.410156,4343.846191,4294.743652,4321.922852,4552.820313,4545.897461,4397.436035,4389.358887,5010.000000,1.000000,34.000000,,,,0.000000,4.000000,4.000000,4.000000,4.000000,4.000000,4.000000,4.000000,4.000000,4.000000,4.000000,4.000000,4.000000,4.000000,4.000000,100.000000,,,,,,,,,,,,,,,,,,,,,,,,,,,,,,,,,,,,,,,,,,,,,,,,,,,,,,,,,,,,,,,,,,,,,,,,,,,,,,,,,,,,,,,,,,,,,,,,,,,,,,,,,,,,,,,,,,,,,
1768372708.444750,1768372708.445627,105.000000,0.000000,4344.743652,4328.205078,4366.282227,4358.205078,4312.820313,4304.358887,4327.051270,4345.000000,4295.769043,4323.974121,4550.769043,4548.461426,4398.589844,4388.589844,5420.000000,1.000000,34.000000,,,,0.000000,4.000000,4.000000,4.000000,4.000000,4.000000,4.000000,4.000000,4.000000,4.000000,4.000000,4.000000,4.000000,4.000000,4.000000,100.000000,,,,,,,,,,,,,,,,,,,,,,,,,,,,,,,,,,,,,,,,,,,,,,,,,,,,,,,,,,,,,,,,,,,,,,,,,,,,,,,,,,,,,,,,,,,,,,,,,,,,,,,,,,,,,,,,,,,,,
1768372708.452558,1768372708.453536,106.000000,0.000000,4342.051270,4327.179688,4366.794922,4357.563965,4317.820313,4311.282227,4329.615234,4349.487305,4296.666504,4325.384766,4542.820313,4547.436035,4393.077148,4389.487305,4380.000000,1.000000,34.000000,,,,0.000000,4.000000,4.000000,4.000000,4.000000,4.000000,4.000000,4.000000,4.000000,4.000000,4.000000,4.000000,4.000000,4.000000,4.000000,100.000000,,,,,,,,,,,,,,,,,,,,,,,,,,,,,,,,,,,,,,,,,,,,,,,,,,,,,,,,,,,,,,,,,,,,,,,,,,,,,,,,,,,,,,,,,,,,,,,,,,,,,,,,,,,,,,,,,,,,,
1768372708.460367,1768372708.461344,107.000000,0.000000,4336.794922,4325.128418,4360.128418,4351.410156,4316.282227,4301.025879,4325.256348,4343.717773,4295.000000,4315.384766,4536.794922,4540.000000,4384.102539,4385.769043,4676.000000,1.000000,34.000000,,,,0.000000,4.000000,4.000000,4.000000,4.000000,4.000000,4.000000,4.000000,4.000000,4.000000,4.000000,4.000000,4.000000,4.000000,4.000000,100.000000,,,,,,,,,,,,,,,,,,,,,,,,,,,,,,,,,,,,,,,,,,,,,,,,,,,,,,,,,,,,,,,,,,,,,,,,,,,,,,,,,,,,,,,,,,,,,,,,,,,,,,,,,,,,,,,,,,,,,
1768372708.468175,1768372708.468953,108.000000,0.000000,4336.025879,4326.282227,4357.692383,4352.307617,4313.589844,4290.384766,4320.512695,4337.307617,4292.820313,4313.846191,4537.436035,4536.794922,4381.922852,4383.974121,5010.000000,1.000000,34.000000,,,,0.000000,4.000000,4.000000,4.000000,4.000000,4.000000,4.000000,4.000000,4.000000,4.000000,4.000000,4.000000,4.000000,4.000000,4.000000,100.000000,,,,,,,,,,,,,,,,,,,,,,,,,,,,,,,,,,,,,,,,,,,,,,,,,,,,,,,,,,,,,,,,,,,,,,,,,,,,,,,,,,,,,,,,,,,,,,,,,,,,,,,,,,,,,,,,,,,,,
1768372708.475984,1768372708.476761,109.000000,0.000000,4332.307617,4324.743652,4357.051270,4349.743652,4314.102539,4302.692383,4324.102539,4342.307617,4295.128418,4321.794922,4537.820313,4542.179688,4385.897461,4387.436035,5420.000000,1.000000,34.000000,,,,0.000000,4.000000,4.000000,4.000000,4.000000,4.000000,4.000000,4.000000,4.000000,4.000000,4.000000,4.000000,4.000000,4.000000,4.000000,100.000000,,,,,,,,,,,,,,,,,,,,,,,,,,,,,,,,,,,,,,,,,,,,,,,,,,,,,,,,,,,,,,,,,,,,,,,,,,,,,,,,,,,,,,,,,,,,,,,,,,,,,,,,,,,,,,,,,,,,,
1768372708.483792,1768372708.484470,110.000000,0.000000,4325.769043,4321.153809,4356.025879,4343.077148,4311.922852,4309.230957,4327.051270,4345.000000,4296.410156,4323.717773,4538.461426,4548.461426,4386.538574,4389.358887,4380.000000,1.000000,34.000000,,,,0.000000,4.000000,4.000000,4.000000,4.000000,4.000000,4.000000,4.000000,4.000000,4.000000,4.000000,4.000000,4.000000,4.000000,4.000000,100.000000,,,,,,,,,,,,,,,,,,,,,,,,,,,,,,,,,,,,,,,,,,,,,,,,0.337064,0.573212,0.066415,0.124485,0.113255,1.273882,0.877289,0.163689,0.171993,0.080097,0.490934,0.210473,0.103633,0.197585,0.116148,0.557000,0.527139,0.086054,0.175132,0.059518,0.233344,0.121897,0.039448,0.078986,0.040066,0.260638,0.158531,0.082257,0.147669,0.169166,0.367816,0.183018,0.138716,0.150041,0.204942,0.171226,0.167570,0.150293,0.078458,0.103278,0.186767,0.264153,0.207714,0.160789,0.098737,0.384989,0.239638,0.277864,0.282128,0.133766,0.402181,0.697314,0.283263,0.338687,0.186213,0.619036,0.618129,0.207010,0.434527,0.153879,0.555885,0.712149,0.286833,0.291079,0.135719,0.295278,0.864911,0.163882,0.298210,0.199822
1768372708.491601,1768372708.492278,111.000000,0.000000,4324.615234,4320.641113,4356.794922,4343.846191,4308.974121,4295.128418,4323.461426,4338.974121,4289.230957,4323.974121,4538.589844,4546.922852,4381.153809,4388.717773,4676.000000,1.000000,34.000000,,,,0.000000,4.000000,4.000000,4.000000,4.000000,4.000000,4.000000,4.000000,4.000000,4.000000,4.000000,4.000000,4.000000,4.000000,4.000000,100.000000,,,,,,,,,,,,,,,,,,,,,,,,,,,,,,,,,,,,,,,,,,,,,,,,,,,,,,,,,,,,,,,,,,,,,,,,,,,,,,,,,,,,,,,,,,,,,,,,,,,,,,,,,,,,,,,,,,,,,
1768372708.499409,1768372708.499887,112.000000,0.000000,4326.922852,4321.538574,4356.922852,4345.769043,4311.153809,4289.358887,4320.641113,4339.615234,4275.000000,4324.743652,4536.153809,4542.820313,4378.077148,4391.666504,5010.000000,1.000000,34.000000,,,,0.000000,4.000000,4.000000,4.000000,4.000000,4.000000,4.000000,4.000000,4.000000,4.000000,4.000000,4.000000,4.000000,4.000000,4.000000,100.000000,,,,,,,,,,,,,,,,,,,,,,,,,,,,,,,,,,,,,,,,,,,,,,,,,,,,,,,,,,,,,,,,,,,,,,,,,,,,,,,,,,,,,,,,,,,,,,,,,,,,,,,,,,,,,,,,,,,,,
1768372708.507218,1768372708.507695,113.000000,0.000000,4331.538574,4323.589844,4357.820313,4345.897461,4313.461426,4296.410156,4323.717773,4344.743652,4267.436035,4321.538574,4536.666504,4548.717773,4380.128418,4395.897461,5420.000000,1.000000,34.000000,,,,0.000000,4.000000,4.000000,4.000000,4.000000,4.000000,4.000000,4.000000,4.000000,4.000000,4.000000,4.000000,4.000000,4.000000,4.000000,100.000000,,,,,,,,,,,,,,,,,,,,,,,,,,,,,,,,,,,,,,,,,,,,,,,,,,,,,,,,,,,,,,,,,,,,,,,,,,,,,,,,,,,,,,,,,,,,,,,,,,,,,,,,,,,,,,,,,,,,,
1768372708.515026,1768372708.515604,114.000000,0.000000,4340.256348,4326.538574,4360.512695,4351.794922,4310.641113,4295.128418,4320.128418,4344.358887,4268.205078,4322.436035,4536.922852,4552.820313,4380.641113,4395.384766,4380.000000,1.000000,34.000000,,,,0.000000,4.000000,4.000000,4.000000,4.000000,4.000000,4.000000,4.000000,4.000000,4.000000,4.000000,4.000000,4.000000,4.000000,4.000000,100.000000,,,,,,,,,,,,,,,,,,,,,,,,,,,,,,,,,,,,,,,,,,,,,,,,,,,,,,,,,,,,,,,,,,,,,,,,,,,,,,,,,,,,,,,,,,,,,,,,,,,,,,,,,,,,,,,,,,,,,
1768372708.522834,1768372708.523412,115.000000,0.000000,4344.358887,4327.563965,4363.974121,4358.205078,4311.153809,4289.615234,4312.051270,4339.230957,4266.666504,4328.461426,4537.436035,4550.512695,4379.358887,4396.538574,4676.000000,1.000000,34.000000,,,,0.000000,4.000000,4.000000,4.000000,4.000000,4.000000,4.000000,4.000000,4.000000,4.000000,4.000000,4.000000,4.000000,4.000000,4.000000,100.000000,,,,,,,,,,,,,,,,,,,,,,,,,,,,,,,,,,,,,,,,,,,,,,,,,,,,,,,,,,,,,,,,,,,,,,,,,,,,,,,,,,,,,,,,,,,,,,,,,,,,,,,,,,,,,,,,,,,,,
1768372708.530643,1768372708.531421,116.000000,0.000000,4343.333496,4331.666504,4369.743652,4359.102539,4316.538574,4293.589844,4318.205078,4335.256348,4263.846191,4327.692383,4539.230957,4554.615234,4383.846191,4407.179688,5010.000000,1.000000,34.000000,,,,0.000000,4.000000,4.000000,4.000000,4.000000,4.000000,4.000000,4.000000,4.000000,4.000000,4.000000,4.000000,4.000000,4.000000,4.000000,100.000000,,,,,,,,,,,,,,,,,,,,,,,,,,,,,,,,,,,,,,,,,,,,,,,,,,,,,,,,,,,,,,,,,,,,,,,,,,,,,,,,,,,,,,,,,,,,,,,,,,,,,,,,,,,,,,,,,,,,,
1768372708.538451,1768372708.539229,117.000000,0.000000,4346.282227,4333.461426,4371.666504,4357.563965,4316.666504,4296.666504,4324.487305,4337.820313,4265.256348,4325.128418,4539.358887,4555.769043,4386.538574,4413.974121,5420.000000,1.000000,34.000000,,,,0.000000,4.000000,4.000000,4.000000,4.000000,4.000000,4.000000,4.000000,4.000000,4.000000,4.000000,4.000000,4.000000,4.000000,4.000000,100.000000,,,,,,,,,,,,,,,,,,,,,,,,,,,,,,,,,,,,,,,,,,,,,,,,,,,,,,,,,,,,,,,,,,,,,,,,,,,,,,,,,,,,,,,,,,,,,,,,,,,,,,,,,,,,,,,,,,,,,
1768372708.546260,1768372708.547137,118.000000,0.000000,4350.512695,4328.333496,4368.077148,4356.666504,4311.666504,4292.948730,4315.512695,4342.051270,4270.897461,4332.307617,4543.846191,4552.948730,4387.307617,4414.615234,4380.000000,1.000000,34.000000,,,,0.000000,4.000000,4.000000,4.000000,4.000000,4.000000,4.000000,4.000000,4.000000,4.000000,4.000000,4.000000,4.000000,4.000000,4.000000,100.000000,,,,,,,,,,,,,,,,,,,,,,,,,,,,,,,,,,,,,,,,,,,,,,,,,,,,,,,,,,,,,,,,,,,,,,,,,,,,,,,,,,,,,,,,,,,,,,,,,,,,,,,,,,,,,,,,,,,,,
1768372708.554068,1768372708.554946,119.000000,0.000000,4348.717773,4325.512695,4365.769043,4356.025879,4309.871582,4292.051270,4311.153809,4342.563965,4276.794922,4341.410156,4551.282227,4561.666504,4392.179688,4417.307617,4676.000000,1.000000,34.000000,,,,0.000000,4.000000,4.000000,4.000000,4.000000,4.000000,4.000000,4.000000,4.000000,4.000000,4.000000,4.000000,4.000000,4.000000,4.000000,100.000000,,,,,,,,,,,,,,,,,,,,,,,,,,,,,,,,,,,,,,,,,,,,,,,,,,,,,,,,,,,,,,,,,,,,,,,,,,,,,,,,,,,,,,,,,,,,,,,,,,,,,,,,,,,,,,,,,,,,,
1768372708.561877,1768372708.562954,120.000000,0.000000,4342.436035,4324.743652,4365.128418,4352.948730,4310.256348,4296.153809,4319.230957,4344.487305,4278.461426,4342.820313,4553.717773,4567.820313,4396.282227,4417.948730,5010.000000,1.000000,34.000000,,,,0.000000,4.000000,4.000000,4.000000,4.000000,4.000000,4.000000,4.000000,4.000000,4.000000,4.000000,4.000000,4.000000,4.000000,4.000000,100.000000,,,,,,,,,,,,,,,,,,,,,,,,,,,,,,,,,,,,,,,,,,,,,,,,,,,,,,,,,,,,,,,,,,,,,,,,,,,,,,,,,,,,,,,,,,,,,,,,,,,,,,,,,,,,,,,,,,,,,
1768372708.569685,1768372708.570762,121.000000,0.000000,4339.871582,4323.333496,4364.871582,4350.384766,4314.487305,4298.717773,4322.820313,4349.487305,4282.436035,4344.871582,4553.846191,4562.179688,4393.077148,4412.820313,5420.000000,1.000000,34.000000,,,,0.000000,4.000000,4.000000,4.000000,4.000000,4.000000,4.000000,4.000000,4.000000,4.000000,4.000000,4.000000,4.000000,4.000000,4.000000,100.000000,,,,,,,,,,,,,,,,,,,,,,,,,,,,,,,,,,,,,,,,,,,,,,,,,,,,,,,,,,,,,,,,,,,,,,,,,,,,,,,,,,,,,,,,,,,,,,,,,,,,,,,,,,,,,,,,,,,,,
1768372708.577494,1768372708.578471,122.000000,0.000000,4339.743652,4322.948730,4365.897461,4352.563965,4318.333496,4298.333496,4319.871582,4350.897461,4285.769043,4349.487305,4554.871582,4560.769043,4388.974121,4409.487305,4380.000000,1.000000,34.000000,,,,0.000000,4.000000,4.000000,4.000000,4.000000,4.000000,4.000000,4.000000,4.000000,4.000000,4.000000,4.000000,4.000000,4.000000,4.000000,100.000000,,,,,,,,,,,,,,,,,,,,,,,,,,,,,,,,,,,,,,,,,,,,,,,,,,,,,,,,,,,,,,,,,,,,,,,,,,,,,,,,,,,,,,,,,,,,,,,,,,,,,,,,,,,,,,,,,,,,,
1768372708.585302,1768372708.586279,123.000000,0.000000,4335.769043,4323.717773,4362.179688,4352.820313,4318.589844,4299.102539,4317.948730,4349.487305,4284.615234,4350.641113,4553.077148,4564.102539,4392.179688,4408.717773,4676.000000,1.000000,34.000000,,,,0.000000,4.000000,4.000000,4.000000,4.000000,4.000000,4.000000,4.000000,4.000000,4.000000,4.000000,4.000000,4.000000,4.000000,4.000000,100.000000,,,,,,,,,,,,,,,,,,,,,,,,,,,,,,,,,,,,,,,,,,,,,,,,,,,,,,,,,,,,,,,,,,,,,,,,,,,,,,,,,,,,,,,,,,,,,,,,,,,,,,,,,,,,,,,,,,,,,
1768372708.593110,1768372708.593888,124.000000,0.000000,4334.230957,4320.512695,4353.461426,4349.871582,4317.051270,4301.282227,4319.487305,4349.230957,4285.384766,4353.589844,4553.461426,4559.743652,4395.128418,4408.333496,5010.000000,1.000000,34.000000,,,,0.000000,4.000000,4.000000,4.000000,4.000000,4.000000,4.000000,4.000000,4.000000,4.000000,4.000000,4.000000,4.000000,4.000000,4.000000,100.000000,,,,,,,,,,,,,,,,,,,,,,,,,,,,,,,,,,,,,,,,,,,,,,,,,,,,,,,,,,,,,,,,,,,,,,,,,,,,,,,,,,,,,,,,,,,,,,,,,,,,,,,,,,,,,,,,,,,,,
1768372708.600919,1768372708.601697,125.000000,0.000000,4332.436035,4314.743652,4350.512695,4345.512695,4313.846191,4304.358887,4322.820313,4349.358887,4288.333496,4351.922852,4552.051270,4552.307617,4387.436035,4404.871582,5420.000000,1.000000,34.000000,,,,0.000000,4.000000,4.000000,4.000000,4.000000,4.000000,4.000000,4.000000,4.000000,4.000000,4.000000,4.000000,4.000000,4.000000,4.000000,100.000000,,,,,,,,,,,,,,,,,,,,,,,,,,,,,,,,,,,,,,,,,,,,,,,,,,,,,,,,,,,,,,,,,,,,,,,,,,,,,,,,,,,,,,,,,,,,,,,,,,,,,,,,,,,,,,,,,,,,,
1768372708.608727,1768372708.609405,126.000000,0.000000,4324.102539,4312.948730,4350.256348,4339.102539,4313.205078,4301.025879,4317.692383,4348.846191,4285.384766,4341.025879,4539.487305,4546.282227,4373.461426,4393.077148,4380.000000,1.000000,34.000000,,,,0.000000,4.000000,4.000000,4.000000,4.000000,4.000000,4.000000,4.000000,4.000000,4.000000,4.000000,4.000000,4.000000,4.000000,4.000000,100.000000,,,,,,,,,,,,,,,,,,,,,,,,,,,,,,,,,,,,,,,,,,,,,,,,0.335564,0.577598,0.064867,0.141631,0.108996,1.352892,0.910698,0.192684,0.184373,0.078411,0.473361,0.197503,0.114995,0.262214,0.114866,0.614985,0.563748,0.126038,0.203213,0.063335,0.226796,0.110743,0.046725,0.079347,0.038190,0.271458,0.133161,0.062412,0.151280,0.153202,0.347783,0.177429,0.136827,0.166647,0.195366,0.164443,0.214877,0.161745,0.089671,0.106550,0.225654,0.319455,0.224936,0.171620,0.102971,0.453483,0.245571,0.290889,0.318496,0.147536,0.443366,0.653338,0.293272,0.399655,0.178954,0.667356,0.591215,0.245078,0.552092,0.161819,0.525789,0.656532,0.273983,0.352620,0.146797,0.307179,0.775089,0.169164,0.361026,0.180751
1768372708.616536,1768372708.617214,127.000000,0.000000,4327.563965,4315.641113,4352.307617,4340.897461,4318.589844,4297.051270,4310.128418,4347.948730,4286.410156,4344.230957,4533.846191,4547.436035,4372.563965,4391.794922,34.000000,1.000000,34.000000,,,,0.000000,4.000000,4.000000,4.000000,4.000000,4.000000,4.000000,4.000000,4.000000,4.000000,4.000000,4.000000,4.000000,4.000000,4.000000,100.000000,,,,,,,,,,,,,,,,,,,,,,,,,,,,,,,,,,,,,,,,,,,,,,,,,,,,,,,,,,,,,,,,,,,,,,,,,,,,,,,,,,,,,,,,,,,,,,,,,,,,,,,,,,,,,,,,,,,,,
1768372708.624344,1768372708.624822,0.000000,0.000000,4342.436035,4324.743652,4359.871582,4351.282227,4321.794922,4297.179688,4310.256348,4348.333496,4296.794922,4364.615234,4546.794922,4560.000000,4388.461426,4407.948730,4056.000000,1.000000,34.000000,,,,0.000000,4.000000,4.000000,4.000000,4.000000,4.000000,4.000000,4.000000,4.000000,4.000000,4.000000,4.000000,4.000000,4.000000,4.000000,100.000000,,,,,,,,,,,,,,,,,,,,,,,,,,,,,,,,,,,,,,,,,,,,,,,,,,,,,,,,,,,,,,,,,,,,,,,,,,,,,,,,,,,,,,,,,,,,,,,,,,,,,,,,,,,,,,,,,,,,,
1768372708.632152,1768372708.632631,1.000000,0.000000,4346.666504,4333.846191,4361.666504,4355.897461,4320.769043,4296.410156,4311.153809,4348.589844,4298.846191,4372.307617,4559.743652,4563.589844,4401.025879,4416.922852,3976.000000,1.000000,34.000000,,,,0.000000,4.000000,4.000000,4.000000,4.000000,4.000000,4.000000,4.000000,4.000000,4.000000,4.000000,4.000000,4.000000,4.000000,4.000000,100.000000,,,,,,,,,,,,,,,,,,,,,,,,,,,,,,,,,,,,,,,,,,,,,,,,,,,,,,,,,,,,,,,,,,,,,,,,,,,,,,,,,,,,,,,,,,,,,,,,,,,,,,,,,,,,,,,,,,,,,
1768372708.639961,1768372708.640339,2.000000,0.000000,4344.358887,4333.333496,4355.641113,4354.487305,4321.666504,4299.358887,4310.000000,4347.820313,4286.538574,4362.436035,4553.717773,4552.179688,4398.333496,4413.077148,3874.000000,1.000000,34.000000,,,,0.000000,4.000000,4.000000,4.000000,4.000000,4.000000,4.000000,4.000000,4.000000,4.000000,4.000000,4.000000,4.000000,4.000000,4.000000,100.000000,,,,,,,,,,,,,,,,,,,,,,,,,,,,,,,,,,,,,,,,,,,,,,,,,,,,,,,,,,,,,,,,,,,,,,,,,,,,,,,,,,,,,,,,,,,,,,,,,,,,,,,,,,,,,,,,,,,,,
1768372708.647769,1768372708.648148,3.000000,0.000000,4350.128418,4326.794922,4357.307617,4356.538574,4323.205078,4305.641113,4310.000000,4347.436035,4280.897461,4356.153809,4543.461426,4548.717773,4387.051270,4411.538574,3857.000000,1.000000,34.000000,,,,0.000000,4.000000,4.000000,4.000000,4.000000,4.000000,4.000000,4.000000,4.000000,4.000000,4.000000,4.000000,4.000000,4.000000,4.000000,100.000000,,,,,,,,,,,,,,,,,,,,,,,,,,,,,,,,,,,,,,,,,,,,,,,,,,,,,,,,,,,,,,,,,,,,,,,,,,,,,,,,,,,,,,,,,,,,,,,,,,,,,,,,,,,,,,,,,,,,,
1768372708.655578,1768372708.656156,4.000000,0.000000,4352.692383,4325.000000,4366.025879,4356.538574,4323.846191,4307.820313,4312.563965,4347.948730,4288.717773,4357.307617,4543.846191,4556.410156,4388.461426,4415.000000,3782.000000,1.000000,34.000000,,,,0.000000,4.000000,4.000000,4.000000,4.000000,4.000000,4.000000,4.000000,4.000000,4.000000,4.000000,4.000000,4.000000,4.000000,4.000000,100.000000,,,,,,,,,,,,,,,,,,,,,,,,,,,,,,,,,,,,,,,,,,,,,,,,,,,,,,,,,,,,,,,,,,,,,,,,,,,,,,,,,,,,,,,,,,,,,,,,,,,,,,,,,,,,,,,,,,,,,
1768372708.663386,1768372708.663964,5.000000,0.000000,4345.641113,4327.820313,4365.897461,4352.307617,4323.589844,4306.282227,4317.948730,4349.230957,4294.230957,4357.948730,4544.230957,4557.307617,4396.410156,4414.230957,3747.000000,1.000000,34.000000,,,,0.000000,4.000000,4.000000,4.000000,4.000000,4.000000,4.000000,4.000000,4.000000,4.000000,4.000000,4.000000,4.000000,4.000000,4.000000,100.000000,,,,,,,,,,,,,,,,,,,,,,,,,,,,,,,,,,,,,,,,,,,,,,,,,,,,,,,,,,,,,,,,,,,,,,,,,,,,,,,,,,,,,,,,,,,,,,,,,,,,,,,,,,,,,,,,,,,,,
1768372708.671195,1768372708.671673,6.000000,0.000000,4341.153809,4325.897461,4357.820313,4349.230957,4321.025879,4306.153809,4322.436035,4351.410156,4291.025879,4356.666504,4539.487305,4553.974121,4389.487305,4409.871582,3744.000000,1.000000,34.000000,,,,0.000000,4.000000,4.000000,4.000000,4.000000,4.000000,4.000000,4.000000,4.000000,4.000000,4.000000,4.000000,4.000000,4.000000,4.000000,100.000000,,,,,,,,,,,,,,,,,,,,,,,,,,,,,,,,,,,,,,,,,,,,,,,,,,,,,,,,,,,,,,,,,,,,,,,,,,,,,,,,,,,,,,,,,,,,,,,,,,,,,,,,,,,,,,,,,,,,,
1768372708.679003,1768372708.679481,7.000000,0.000000,4342.692383,4322.820313,4357.692383,4347.051270,4321.922852,4305.897461,4323.205078,4353.205078,4293.077148,4358.333496,4538.974121,4557.307617,4378.717773,4408.589844,3747.000000,1.000000,34.000000,,,,0.000000,4.000000,4.000000,4.000000,4.000000,4.000000,4.000000,4.000000,4.000000,4.000000,4.000000,4.000000,4.000000,4.000000,4.000000,100.000000,,,,,,,,,,,,,,,,,,,,,,,,,,,,,,,,,,,,,,,,,,,,,,,,,,,,,,,,,,,,,,,,,,,,,,,,,,,,,,,,,,,,,,,,,,,,,,,,,,,,,,,,,,,,,,,,,,,,,
1768372708.686812,1768372708.687090,8.000000,0.000000,4344.230957,4323.846191,4362.692383,4347.051270,4324.102539,4309.487305,4320.641113,4351.794922,4293.846191,4358.461426,4542.692383,4560.897461,4385.256348,4414.358887,3947.000000,1.000000,34.000000,,,,0.000000,4.000000,4.000000,4.000000,4.000000,4.000000,4.000000,4.000000,4.000000,4.000000,4.000000,4.000000,4.000000,4.000000,4.000000,100.000000,,,,,,,,,,,,,,,,,,,,,,,,,,,,,,,,,,,,,,,,,,,,,,,,,,,,,,,,,,,,,,,,,,,,,,,,,,,,,,,,,,,,,,,,,,,,,,,,,,,,,,,,,,,,,,,,,,,,,
1768372708.694620,1768372708.694898,9.000000,0.000000,4341.538574,4322.820313,4359.358887,4347.051270,4324.230957,4308.846191,4314.615234,4346.410156,4282.948730,4352.436035,4541.282227,4555.512695,4391.025879,4415.897461,3927.000000,1.000000,34.000000,,,,0.000000,4.000000,4.000000,4.000000,4.000000,4.000000,4.000000,4.000000,4.000000,4.000000,4.000000,4.000000,4.000000,4.000000,4.000000,100.000000,,,,,,,,,,,,,,,,,,,,,,,,,,,,,,,,,,,,,,,,,,,,,,,,,,,,,,,,,,,,,,,,,,,,,,,,,,,,,,,,,,,,,,,,,,,,,,,,,,,,,,,,,,,,,,,,,,,,,
1768372708.702428,1768372708.702607,10.000000,0.000000,4340.641113,4324.102539,4358.846191,4348.205078,4325.000000,4300.384766,4308.846191,4342.436035,4279.358887,4352.307617,4539.358887,4550.897461,4384.358887,4412.051270,4387.000000,1.000000,34.000000,,,,0.000000,4.000000,4.000000,4.000000,4.000000,4.000000,4.000000,4.000000,4.000000,4.000000,4.000000,4.000000,4.000000,4.000000,4.000000,100.000000,,,,,,,,,,,,,,,,,,,,,,,,,,,,,,,,,,,,,,,,,,,,,,,,,,,,,,,,,,,,,,,,,,,,,,,,,,,,,,,,,,,,,,,,,,,,,,,,,,,,,,,,,,,,,,,,,,,,,
1768372708.710237,1768372708.710415,11.000000,0.000000,4343.846191,4329.615234,4368.077148,4354.230957,4325.641113,4301.922852,4308.846191,4341.794922,4286.153809,4357.563965,4540.897461,4555.256348,4379.743652,4413.461426,4676.000000,1.000000,34.000000,,,,0.000000,4.000000,4.000000,4.000000,4.000000,4.000000,4.000000,4.000000,4.000000,4.000000,4.000000,4.000000,4.000000,4.000000,4.000000,100.000000,,,,,,,,,,,,,,,,,,,,,,,,,,,,,,,,,,,,,,,,,,,,,,,,,,,,,,,,,,,,,,,,,,,,,,,,,,,,,,,,,,,,,,,,,,,,,,,,,,,,,,,,,,,,,,,,,,,,,
1768372708.718045,1768372708.718424,12.000000,0.000000,4343.974121,4330.128418,4367.820313,4356.666504,4324.871582,4311.794922,4315.897461,4345.000000,4287.436035,4360.000000,4540.641113,4558.717773,4381.794922,4418.205078,5010.000000,1.000000,34.000000,,,,0.000000,4.000000,4.000000,4.000000,4.000000,4.000000,4.000000,4.000000,4.000000,4.000000,4.000000,4.000000,4.000000,4.000000,4.000000,100.000000,,,,,,,,,,,,,,,,,,,,,,,,,,,,,,,,,,,,,,,,,,,,,,,,,,,,,,,,,,,,,,,,,,,,,,,,,,,,,,,,,,,,,,,,,,,,,,,,,,,,,,,,,,,,,,,,,,,,,
1768372708.725854,1768372708.726232,13.000000,0.000000,4342.692383,4325.384766,4359.102539,4353.077148,4326.666504,4314.358887,4319.615234,4348.846191,4288.461426,4358.974121,4541.282227,4557.563965,4388.077148,4418.205078,5420.000000,1.000000,34.000000,,,,0.000000,4.000000,4.000000,4.000000,4.000000,4.000000,4.000000,4.000000,4.000000,4.000000,4.000000,4.000000,4.000000,4.000000,4.000000,100.000000,,,,,,,,,,,,,,,,,,,,,,,,,,,,,,,,,,,,,,,,,,,,,,,,,,,,,,,,,,,,,,,,,,,,,,,,,,,,,,,,,,,,,,,,,,,,,,,,,,,,,,,,,,,,,,,,,,,,,
1768372708.733662,1768372708.734140,14.000000,0.000000,4339.102539,4323.461426,4357.051270,4348.077148,4324.615234,4305.897461,4312.436035,4346.410156,4288.333496,4357.563965,4540.897461,4557.948730,4389.487305,4414.358887,4387.000000,1.000000,34.000000,,,,0.000000,4.000000,4.000000,4.000000,4.000000,4.000000,4.000000,4.000000,4.000000,4.000000,4.000000,4.000000,4.000000,4.000000,4.000000,100.000000,1.000000,75.000000,4.000000,4.000000,4.000000,4.000000,1.000000,4.000000,4.000000,4.000000,4.000000,4.000000,4.000000,4.000000,4.000000,4.000000,,,,,,,,,,,,,,,,,,,,,,,,,,,,,,,,0.336893,0.573189,0.068392,0.151628,0.102161,1.376957,0.885251,0.224124,0.192092,0.076682,0.466343,0.213959,0.137415,0.318409,0.115486,0.625222,0.583237,0.175286,0.222208,0.066982,0.251181,0.108955,0.059572,0.086614,0.039364,0.256887,0.113975,0.048211,0.161530,0.137590,0.312676,0.174084,0.138178,0.182734,0.182240,0.171444,0.258087,0.177353,0.095031,0.107392,0.287634,0.358333,0.242291,0.173542,0.106421,0.503358,0.243429,0.286724,0.336327,0.165907,0.492616,0.593768,0.281017,0.443413,0.175292,0.703227,0.542776,0.276175,0.676082,0.166721,0.481992,0.584213,0.244501,0.391827,0.160875,0.349659,0.655342,0.185418,0.408304,0.164841
1768372708.741471,1768372708.741949,15.000000,0.000000,4333.974121,4325.641113,4354.102539,4344.871582,4315.641113,4297.307617,4305.641113,4344.743652,4284.743652,4356.922852,4539.743652,4555.897461,4383.333496,4412.948730,4676.000000,1.000000,34.000000,,,,0.000000,4.000000,4.000000,4.000000,4.000000,4.000000,4.000000,4.000000,4.000000,4.000000,4.000000,4.000000,4.000000,4.000000,4.000000,100.000000,,,,,,,,,,,,,,,,,,,,,,,,,,,,,,,,,,,,,,,,,,,,,,,,,,,,,,,,,,,,,,,,,,,,,,,,,,,,,,,,,,,,,,,,,,,,,,,,,,,,,,,,,,,,,,,,,,,,,
1768372708.749279,1768372708.749957,16.000000,0.000000,4336.666504,4329.230957,4347.948730,4345.000000,4314.358887,4301.538574,4309.358887,4347.692383,4285.000000,4357.563965,4540.641113,4551.666504,4380.512695,4415.256348,0.000000,1.000000,34.000000,,,,0.000000,4.000000,4.000000,4.000000,4.000000,4.000000,4.000000,4.000000,4.000000,4.000000,4.000000,4.000000,4.000000,4.000000,4.000000,100.000000,,,,,,,,,,,,,,,,,,,,,,,,,,,,,,,,,,,,,,,,,,,,,,,,,,,,,,,,,,,,,,,,,,,,,,,,,,,,,,,,,,,,,,,,,,,,,,,,,,,,,,,,,,,,,,,,,,,,,
1768372708.757088,1768372708.757766,17.000000,0.000000,4340.769043,4334.743652,4351.025879,4349.487305,4320.641113,4307.179688,4310.897461,4343.974121,4282.948730,4354.102539,4539.743652,4548.077148,4382.179688,4414.743652,0.000000,1.000000,34.000000,,,,0.000000,4.000000,4.000000,4.000000,4.000000,4.000000,4.000000,4.000000,4.000000,4.000000,4.000000,4.000000,4.000000,4.000000,4.000000,100.000000,,,,,,,,,,,,,,,,,,,,,,,,,,,,,,,,,,,,,,,,,,,,,,,,,,,,,,,,,,,,,,,,,,,,,,,,,,,,,,,,,,,,,,,,,,,,,,,,,,,,,,,,,,,,,,,,,,,,,
1768372708.764896,1768372708.765674,18.000000,0.000000,4338.717773,4339.487305,4357.179688,4353.461426,4321.666504,4300.769043,4304.487305,4333.077148,4274.871582,4350.384766,4535.384766,4543.717773,4381.282227,4412.436035,0.000000,1.000000,34.000000,,,,0.000000,4.000000,4.000000,4.000000,4.000000,4.000000,4.000000,4.000000,4.000000,4.000000,4.000000,4.000000,4.000000,4.000000,4.000000,100.000000,,,,,,,,,,,,,,,,,,,,,,,,,,,,,,,,,,,,,,,,,,,,,,,,,,,,,,,,,,,,,,,,,,,,,,,,,,,,,,,,,,,,,,,,,,,,,,,,,,,,,,,,,,,,,,,,,,,,,
1768372708.772704,1768372708.773482,19.000000,0.000000,4337.563965,4342.179688,4358.717773,4354.743652,4321.538574,4300.128418,4305.000000,4331.794922,4275.000000,4352.179688,4535.769043,4545.897461,4379.871582,4415.769043,0.000000,1.000000,34.000000,,,,0.000000,4.000000,4.000000,4.000000,4.000000,4.000000,4.000000,4.000000,4.000000,4.000000,4.000000,4.000000,4.000000,4.000000,4.000000,100.000000,,,,,,,,,,,,,,,,,,,,,,,,,,,,,,,,,,,,,,,,,,,,,,,,,,,,,,,,,,,,,,,,,,,,,,,,,,,,,,,,,,,,,,,,,,,,,,,,,,,,,,,,,,,,,,,,,,,,,
1768372708.780513,1768372708.781191,20.000000,0.000000,4335.256348,4344.230957,4356.025879,4353.461426,4325.897461,4312.307617,4312.179688,4340.897461,4279.871582,4351.666504,4536.666504,4552.436035,4377.820313,4417.179688,0.000000,1.000000,34.000000,,,,0.000000,4.000000,4.000000,4.000000,4.000000,4.000000,4.000000,4.000000,4.000000,4.000000,4.000000,4.000000,4.000000,4.000000,4.000000,100.000000,,,,,,,,,,,,,,,,,,,,,,,,,,,,,,,,,,,,,,,,,,,,,,,,,,,,,,,,,,,,,,,,,,,,,,,,,,,,,,,,,,,,,,,,,,,,,,,,,,,,,,,,,,,,,,,,,,,,,
1768372708.788321,1768372708.788999,21.000000,0.000000,4328.589844,4343.205078,4349.102539,4354.871582,4327.692383,4313.974121,4312.820313,4342.051270,4277.948730,4354.230957,4530.128418,4547.692383,4373.846191,4410.384766,0.000000,1.000000,34.000000,,,,0.000000,4.000000,4.000000,4.000000,4.000000,4.000000,4.000000,4.000000,4.000000,4.000000,4.000000,4.000000,4.000000,4.000000,4.000000,100.000000,,,,,,,,,,,,,,,,,,,,,,,,,,,,,,,,,,,,,,,,,,,,,,,,,,,,,,,,,,,,,,,,,,,,,,,,,,,,,,,,,,,,,,,,,,,,,,,,,,,,,,,,,,,,,,,,,,,,,
1768372708.796130,1768372708.796708,22.000000,0.000000,4325.000000,4342.692383,4343.974121,4356.282227,4325.128418,4307.563965,4308.205078,4335.000000,4275.769043,4355.000000,4522.179688,4535.384766,4372.563965,4407.179688,0.000000,1.000000,34.000000,,,,0.000000,4.000000,4.000000,4.000000,4.000000,4.000000,4.000000,4.000000,4.000000,4.000000,4.000000,4.000000,4.000000,4.000000,4.000000,100.000000,,,,,,,,,,,,,,,,,,,,,,,,,,,,,,,,,,,,,,,,,,,,,,,,,,,,,,,,,,,,,,,,,,,,,,,,,,,,,,,,,,,,,,,,,,,,,,,,,,,,,,,,,,,,,,,,,,,,,
1768372708.803938,1768372708.804516,23.000000,0.000000,4329.615234,4342.051270,4350.128418,4352.436035,4324.487305,4308.846191,4308.717773,4336.538574,4275.897461,4345.769043,4523.589844,4535.512695,4373.717773,4412.179688,0.000000,1.000000,34.000000,,,,0.000000,4.000000,4.000000,4.000000,4.000000,4.000000,4.000000,4.000000,4.000000,4.000000,4.000000,4.000000,4.000000,4.000000,4.000000,100.000000,,,,,,,,,,,,,,,,,,,,,,,,,,,,,,,,,,,,,,,,,,,,,,,,,,,,,,,,,,,,,,,,,,,,,,,,,,,,,,,,,,,,,,,,,,,,,,,,,,,,,,,,,,,,,,,,,,,,,
1768372708.811747,1768372708.812125,24.000000,0.000000,4335.256348,4340.384766,4358.077148,4350.000000,4326.282227,4313.333496,4312.051270,4341.025879,4275.641113,4345.128418,4529.487305,4542.563965,4373.974121,4414.615234,0.000000,1.000000,34.000000,,,,0.000000,4.000000,4.000000,4.000000,4.000000,4.000000,4.000000,4.000000,4.000000,4.000000,4.000000,4.000000,4.000000,4.000000,4.000000,100.000000,,,,,,,,,,,,,,,,,,,,,,,,,,,,,,,,,,,,,,,,,,,,,,,,,,,,,,,,,,,,,,,,,,,,,,,,,,,,,,,,,,,,,,,,,,,,,,,,,,,,,,,,,,,,,,,,,,,,,
1768372708.819555,1768372708.819933,25.000000,0.000000,4334.230957,4340.384766,4355.897461,4351.410156,4327.948730,4311.153809,4310.897461,4337.307617,4278.077148,4356.025879,4527.179688,4541.922852,4371.794922,4412.307617,0.000000,1.000000,34.000000,,,,0.000000,4.000000,4.000000,4.000000,4.000000,4.000000,4.000000,4.000000,4.000000,4.000000,4.000000,4.000000,4.000000,4.000000,4.000000,100.000000,,,,,,,,,,,,,,,,,,,,,,,,,,,,,,,,,,,,,,,,,,,,,,,,,,,,,,,,,,,,,,,,,,,,,,,,,,,,,,,,,,,,,,,,,,,,,,,,,,,,,,,,,,,,,,,,,,,,,
1768372708.827364,1768372708.827642,26.000000,0.000000,4327.436035,4339.102539,4349.615234,4349.743652,4324.743652,4305.769043,4309.102539,4333.461426,4279.230957,4358.333496,4523.333496,4537.948730,4371.025879,4413.205078,0.000000,1.000000,34.000000,,,,0.000000,4.000000,4.000000,4.000000,4.000000,4.000000,4.000000,4.000000,4.000000,4.000000,4.000000,4.000000,4.000000,4.000000,4.000000,100.000000,,,,,,,,,,,,,,,,,,,,,,,,,,,,,,,,,,,,,,,,,,,,,,,,,,,,,,,,,,,,,,,,,,,,,,,,,,,,,,,,,,,,,,,,,,,,,,,,,,,,,,,,,,,,,,,,,,,,,
1768372708.835172,1768372708.835450,27.000000,0.000000,4328.589844,4335.000000,4348.461426,4345.897461,4320.000000,4305.000000,4309.615234,4338.461426,4278.461426,4354.358887,4530.000000,4540.769043,4374.487305,4414.487305,0.000000,1.000000,34.000000,,,,0.000000,4.000000,4.000000,4.000000,4.000000,4.000000,4.000000,4.000000,4.000000,4.000000,4.000000,4.000000,4.000000,4.000000,4.000000,100.000000,,,,,,,,,,,,,,,,,,,,,,,,,,,,,,,,,,,,,,,,,,,,,,,,,,,,,,,,,,,,,,,,,,,,,,,,,,,,,,,,,,,,,,,,,,,,,,,,,,,,,,,,,,,,,,,,,,,,,
1768372708.842981,1768372708.843459,28.000000,0.000000,4334.230957,4334.358887,4352.563965,4345.897461,4320.769043,4307.051270,4309.102539,4341.794922,4279.230957,4358.205078,4539.358887,4546.282227,4378.717773,4417.820313,0.000000,1.000000,34.000000,,,,0.000000,4.000000,4.000000,4.000000,4.000000,4.000000,4.000000,4.000000,4.000000,4.000000,4.000000,4.000000,4.000000,4.000000,4.000000,100.000000,,,,,,,,,,,,,,,,,,,,,,,,,,,,,,,,,,,,,,,,,,,,,,,,,,,,,,,,,,,,,,,,,,,,,,,,,,,,,,,,,,,,,,,,,,,,,,,,,,,,,,,,,,,,,,,,,,,,,
1768372708.850789,1768372708.851267,29.000000,0.000000,4330.769043,4338.589844,4356.282227,4348.077148,4324.743652,4307.307617,4308.589844,4338.461426,4282.820313,4363.846191,4539.487305,4544.487305,4381.025879,4425.256348,0.000000,1.000000,34.000000,,,,0.000000,4.000000,4.000000,4.000000,4.000000,4.000000,4.000000,4.000000,4.000000,4.000000,4.000000,4.000000,4.000000,4.000000,4.000000,100.000000,,,,,,,,,,,,,,,,,,,,,,,,,,,,,,,,,,,,,,,,,,,,,,,,,,,,,,,,,,,,,,,,,,,,,,,,,,,,,,,,,,,,,,,,,,,,,,,,,,,,,,,,,,,,,,,,,,,,,
1768372708.858597,1768372708.859175,30.000000,0.000000,4326.666504,4337.563965,4353.461426,4347.307617,4325.000000,4308.846191,4311.922852,4338.077148,4286.794922,4367.179688,4537.563965,4544.230957,4383.589844,4428.461426,0.000000,1.000000,34.000000,,,,0.000000,4.000000,4.000000,4.000000,4.000000,4.000000,4.000000,4.000000,4.000000,4.000000,4.000000,4.000000,4.000000,4.000000,4.000000,100.000000,,,,,,,,,,,,,,,,,,,,,,,,,,,,,,,,,,,,,,,,,,,,,,,,0.334182,0.576971,0.076380,0.152594,0.093548,1.356177,0.801330,0.245027,0.190933,0.075129,0.444939,0.257982,0.167849,0.350524,0.116571,0.586610,0.582799,0.221733,0.226931,0.068745,0.302751,0.116171,0.076864,0.099736,0.042000,0.227584,0.108525,0.046593,0.175152,0.127728,0.273025,0.172234,0.144698,0.193197,0.169316,0.196726,0.284340,0.192782,0.092733,0.105867,0.400446,0.380257,0.262622,0.167548,0.107698,0.543555,0.228608,0.271808,0.336718,0.182298,0.554337,0.520050,0.260064,0.461043,0.171887,0.713188,0.475549,0.294402,0.779480,0.168666,0.438650,0.511767,0.209137,0.400156,0.171745,0.435812,0.534686,0.207567,0.426206,0.154185
1768372708.866406,1768372708.866984,31.000000,0.000000,4328.077148,4333.589844,4347.948730,4345.384766,4322.436035,4309.487305,4311.153809,4342.051270,4289.102539,4367.820313,4539.487305,4546.794922,4384.230957,4425.384766,0.000000,1.000000,34.000000,,,,0.000000,4.000000,4.000000,4.000000,4.000000,4.000000,4.000000,4.000000,4.000000,4.000000,4.000000,4.000000,4.000000,4.000000,4.000000,100.000000,,,,,,,,,,,,,,,,,,,,,,,,,,,,,,,,,,,,,,,,,,,,,,,,,,,,,,,,,,,,,,,,,,,,,,,,,,,,,,,,,,,,,,,,,,,,,,,,,,,,,,,,,,,,,,,,,,,,,
1768372708.874214,1768372708.874593,32.000000,0.000000,4329.743652,4333.077148,4346.666504,4345.641113,4322.563965,4306.025879,4306.538574,4343.461426,4291.153809,4369.487305,4539.358887,4548.205078,4384.358887,4425.897461,0.000000,1.000000,34.000000,,,,0.000000,4.000000,4.000000,4.000000,4.000000,4.000000,4.000000,4.000000,4.000000,4.000000,4.000000,4.000000,4.000000,4.000000,4.000000,100.000000,,,,,,,,,,,,,,,,,,,,,,,,,,,,,,,,,,,,,,,,,,,,,,,,,,,,,,,,,,,,,,,,,,,,,,,,,,,,,,,,,,,,,,,,,,,,,,,,,,,,,,,,,,,,,,,,,,,,,
1768372708.882023,1768372708.882401,33.000000,0.000000,4329.230957,4332.179688,4348.205078,4346.794922,4324.230957,4306.025879,4308.077148,4341.282227,4293.205078,4375.000000,4538.333496,4548.589844,4387.051270,4428.846191,0.000000,1.000000,34.000000,,,,0.000000,4.000000,4.000000,4.000000,4.000000,4.000000,4.000000,4.000000,4.000000,4.000000,4.000000,4.000000,4.000000,4.000000,4.000000,100.000000,,,,,,,,,,,,,,,,,,,,,,,,,,,,,,,,,,,,,,,,,,,,,,,,,,,,,,,,,,,,,,,,,,,,,,,,,,,,,,,,,,,,,,,,,,,,,,,,,,,,,,,,,,,,,,,,,,,,,
1768372708.889831,1768372708.890110,34.000000,0.000000,4326.538574,4332.179688,4348.974121,4346.410156,4325.769043,4312.179688,4313.205078,4339.358887,4292.948730,4374.743652,4539.487305,4545.256348,4388.333496,4427.436035,0.000000,1.000000,34.000000,,,,0.000000,4.000000,4.000000,4.000000,4.000000,4.000000,4.000000,4.000000,4.000000,4.000000,4.000000,4.000000,4.000000,4.000000,4.000000,100.000000,,,,,,,,,,,,,,,,,,,,,,,,,,,,,,,,,,,,,,,,,,,,,,,,,,,,,,,,,,,,,,,,,,,,,,,,,,,,,,,,,,,,,,,,,,,,,,,,,,,,,,,,,,,,,,,,,,,,,
1768372708.897640,1768372708.897918,35.000000,0.000000,4329.487305,4335.128418,4352.820313,4349.743652,4327.820313,4314.487305,4312.563965,4337.563965,4294.230957,4370.641113,4537.563965,4544.743652,4385.000000,4425.256348,0.000000,1.000000,34.000000,,,,0.000000,4.000000,4.000000,4.000000,4.000000,4.000000,4.000000,4.000000,4.000000,4.000000,4.000000,4.000000,4.000000,4.000000,4.000000,100.000000,,,,,,,,,,,,,,,,,,,,,,,,,,,,,,,,,,,,,,,,,,,,,,,,,,,,,,,,,,,,,,,,,,,,,,,,,,,,,,,,,,,,,,,,,,,,,,,,,,,,,,,,,,,,,,,,,,,,,
1768372708.905448,1768372708.905926,36.000000,0.000000,4334.230957,4336.282227,4355.256348,4353.333496,4326.922852,4310.512695,4308.846191,4333.333496,4295.384766,4367.563965,4528.717773,4547.179688,4381.025879,4425.256348,0.000000,1.000000,34.000000,,,,0.000000,4.000000,4.000000,4.000000,4.000000,4.000000,4.000000,4.000000,4.000000,4.000000,4.000000,4.000000,4.000000,4.000000,4.000000,100.000000,,,,,,,,,,,,,,,,,,,,,,,,,,,,,,,,,,,,,,,,,,,,,,,,,,,,,,,,,,,,,,,,,,,,,,,,,,,,,,,,,,,,,,,,,,,,,,,,,,,,,,,,,,,,,,,,,,,,,
1768372708.913257,1768372708.913735,37.000000,0.000000,4330.769043,4335.384766,4355.897461,4349.230957,4326.410156,4312.307617,4309.743652,4329.487305,4291.922852,4360.641113,4523.333496,4546.410156,4378.589844,4428.333496,0.000000,1.000000,34.000000,,,,0.000000,4.000000,4.000000,4.000000,4.000000,4.000000,4.000000,4.000000,4.000000,4.000000,4.000000,4.000000,4.000000,4.000000,4.000000,100.000000,,,,,,,,,,,,,,,,,,,,,,,,,,,,,,,,,,,,,,,,,,,,,,,,,,,,,,,,,,,,,,,,,,,,,,,,,,,,,,,,,,,,,,,,,,,,,,,,,,,,,,,,,,,,,,,,,,,,,
1768372708.921065,1768372708.921643,38.000000,0.000000,4326.410156,4335.128418,4357.436035,4346.025879,4328.846191,4320.256348,4311.025879,4329.743652,4290.512695,4356.410156,4525.256348,4543.589844,4376.153809,4428.333496,0.000000,1.000000,34.000000,,,,0.000000,4.000000,4.000000,4.000000,4.000000,4.000000,4.000000,4.000000,4.000000,4.000000,4.000000,4.000000,4.000000,4.000000,4.000000,100.000000,,,,,,,,,,,,,,,,,,,,,,,,,,,,,,,,,,,,,,,,,,,,,,,,,,,,,,,,,,,,,,,,,,,,,,,,,,,,,,,,,,,,,,,,,,,,,,,,,,,,,,,,,,,,,,,,,,,,,
1768372708.928873,1768372708.929452,39.000000,0.000000,4326.666504,4332.179688,4352.436035,4346.922852,4328.461426,4321.282227,4311.025879,4332.051270,4292.948730,4364.102539,4524.102539,4541.153809,4371.538574,4421.282227,0.000000,1.000000,34.000000,,,,0.000000,4.000000,4.000000,4.000000,4.000000,4.000000,4.000000,4.000000,4.000000,4.000000,4.000000,4.000000,4.000000,4.000000,4.000000,100.000000,,,,,,,,,,,,,,,,,,,,,,,,,,,,,,,,,,,,,,,,,,,,,,,,,,,,,,,,,,,,,,,,,,,,,,,,,,,,,,,,,,,,,,,,,,,,,,,,,,,,,,,,,,,,,,,,,,,,,
1768372708.936682,1768372708.937460,40.000000,0.000000,4325.256348,4329.102539,4345.512695,4345.128418,4325.641113,4315.897461,4310.512695,4334.487305,4295.256348,4373.589844,4523.333496,4542.563965,4370.641113,4420.128418,0.000000,1.000000,34.000000,,,,0.000000,4.000000,4.000000,4.000000,4.000000,4.000000,4.000000,4.000000,4.000000,4.000000,4.000000,4.000000,4.000000,4.000000,4.000000,100.000000,,,,,,,,,,,,,,,,,,,,,,,,,,,,,,,,,,,,,,,,,,,,,,,,,,,,,,,,,,,,,,,,,,,,,,,,,,,,,,,,,,,,,,,,,,,,,,,,,,,,,,,,,,,,,,,,,,,,,
1768372708.944490,1768372708.945268,41.000000,0.000000,4325.512695,4327.948730,4350.000000,4342.307617,4325.641113,4313.589844,4310.384766,4338.077148,4295.641113,4373.461426,4527.948730,4549.230957,4378.717773,4426.922852,0.000000,1.000000,34.000000,,,,0.000000,4.000000,4.000000,4.000000,4.000000,4.000000,4.000000,4.000000,4.000000,4.000000,4.000000,4.000000,4.000000,4.000000,4.000000,100.000000,,,,,,,,,,,,,,,,,,,,,,,,,,,,,,,,,,,,,,,,,,,,,,,,,,,,,,,,,,,,,,,,,,,,,,,,,,,,,,,,,,,,,,,,,,,,,,,,,,,,,,,,,,,,,,,,,,,,,
1768372708.952299,1768372708.953177,42.000000,0.000000,4328.974121,4326.922852,4356.922852,4343.846191,4327.820313,4312.563965,4311.025879,4336.666504,4294.615234,4372.179688,4528.333496,4552.307617,4382.179688,4430.512695,0.000000,1.000000,34.000000,,,,0.000000,4.000000,4.000000,4.000000,4.000000,4.000000,4.000000,4.000000,4.000000,4.000000,4.000000,4.000000,4.000000,4.000000,4.000000,100.000000,,,,,,,,,,,,,,,,,,,,,,,,,,,,,,,,,,,,,,,,,,,,,,,,,,,,,,,,,,,,,,,,,,,,,,,,,,,,,,,,,,,,,,,,,,,,,,,,,,,,,,,,,,,,,,,,,,,,,
1768372708.960107,1768372708.960985,43.000000,0.000000,4328.589844,4327.692383,4353.077148,4345.384766,4327.179688,4310.128418,4308.717773,4332.948730,4293.461426,4374.102539,4524.358887,4546.410156,4376.410156,4430.384766,0.000000,1.000000,34.000000,,,,0.000000,4.000000,4.000000,4.000000,4.000000,4.000000,4.000000,4.000000,4.000000,4.000000,4.000000,4.000000,4.000000,4.000000,4.000000,100.000000,,,,,,,,,,,,,,,,,,,,,,,,,,,,,,,,,,,,,,,,,,,,,,,,,,,,,,,,,,,,,,,,,,,,,,,,,,,,,,,,,,,,,,,,,,,,,,,,,,,,,,,,,,,,,,,,,,,,,
1768372708.967915,1768372708.968594,44.000000,0.000000,4325.769043,4326.282227,4343.846191,4340.897461,4325.128418,4311.282227,4306.922852,4335.512695,4294.615234,4374.102539,4522.692383,4540.256348,4372.948730,4426.922852,0.000000,1.000000,34.000000,,,,0.000000,4.000000,4.000000,4.000000,4.000000,4.000000,4.000000,4.000000,4.000000,4.000000,4.000000,4.000000,4.000000,4.000000,4.000000,100.000000,,,,,,,,,,,,,,,,,,,,,,,,,,,,,,,,,,,,,,,,,,,,,,,,,,,,,,,,,,,,,,,,,,,,,,,,,,,,,,,,,,,,,,,,,,,,,,,,,,,,,,,,,,,,,,,,,,,,,
1768372708.975724,1768372708.976402,45.000000,0.000000,4323.077148,4324.230957,4340.512695,4339.358887,4325.000000,4316.666504,4309.487305,4338.077148,4297.307617,4369.487305,4520.897461,4535.897461,4369.358887,4417.692383,0.000000,1.000000,34.000000,,,,0.000000,4.000000,4.000000,4.000000,4.000000,4.000000,4.000000,4.000000,4.000000,4.000000,4.000000,4.000000,4.000000,4.000000,4.000000,100.000000,,,,,,,,,,,,,,,,,,,,,,,,,,,,,,,,,,,,,,,,,,,,,,,,,,,,,,,,,,,,,,,,,,,,,,,,,,,,,,,,,,,,,,,,,,,,,,,,,,,,,,,,,,,,,,,,,,,,,
1768372708.983532,1768372708.984111,46.000000,0.000000,4325.128418,4326.922852,4346.282227,4343.077148,4325.641113,4321.666504,4313.333496,4335.000000,4297.692383,4367.692383,4521.922852,4538.589844,4368.077148,4418.205078,0.000000,1.000000,34.000000,,,,0.000000,4.000000,4.000000,4.000000,4.000000,4.000000,4.000000,4.000000,4.000000,4.000000,4.000000,4.000000,4.000000,4.000000,4.000000,100.000000,,,,,,,,,,,,,,,,,,,,,,,,,,,,,,,,,,,,,,,,,,,,,,,,0.342845,0.621466,0.088257,0.146618,0.085206,1.306607,0.688417,0.249401,0.181523,0.074072,0.429478,0.325873,0.199473,0.350722,0.117072,0.519144,0.573913,0.259275,0.218205,0.067812,0.368609,0.129750,0.096952,0.115295,0.044735,0.199723,0.118165,0.059492,0.187636,0.126910,0.243019,0.172216,0.156903,0.194459,0.159223,0.238938,0.283674,0.207033,0.084888,0.102844,0.602766,0.391377,0.286666,0.157771,0.106968,0.554627,0.203531,0.257945,0.327577,0.191679,0.630190,0.442465,0.247767,0.452318,0.165509,0.726925,0.401536,0.299912,0.835669,0.169076,0.413515,0.459731,0.183927,0.379383,0.176034,0.581748,0.453413,0.231294,0.409454,0.147470
1768372708.991341,1768372708.991919,47.000000,0.000000,4328.717773,4329.615234,4352.051270,4344.615234,4325.000000,4321.794922,4312.820313,4333.589844,4296.666504,4369.743652,4521.153809,4545.000000,4371.666504,4426.153809,0.000000,1.000000,34.000000,,,,0.000000,4.000000,4.000000,4.000000,4.000000,4.000000,4.000000,4.000000,4.000000,4.000000,4.000000,4.000000,4.000000,4.000000,4.000000,100.000000,,,,,,,,,,,,,,,,,,,,,,,,,,,,,,,,,,,,,,,,,,,,,,,,,,,,,,,,,,,,,,,,,,,,,,,,,,,,,,,,,,,,,,,,,,,,,,,,,,,,,,,,,,,,,,,,,,,,,
1768372708.999149,1768372708.999528,48.000000,0.000000,4320.000000,4324.102539,4343.205078,4340.512695,4324.358887,4316.794922,4311.025879,4335.769043,4297.436035,4367.692383,4514.871582,4541.538574,4368.461426,4424.358887,0.000000,1.000000,34.000000,,,,0.000000,4.000000,4.000000,4.000000,4.000000,4.000000,4.000000,4.000000,4.000000,4.000000,4.000000,4.000000,4.000000,4.000000,4.000000,100.000000,,,,,,,,,,,,,,,,,,,,,,,,,,,,,,,,,,,,,,,,,,,,,,,,,,,,,,,,,,,,,,,,,,,,,,,,,,,,,,,,,,,,,,,,,,,,,,,,,,,,,,,,,,,,,,,,,,,,,
1768372709.006958,1768372709.007336,49.000000,0.000000,4308.461426,4317.051270,4328.461426,4333.974121,4322.563965,4311.922852,4307.820313,4333.077148,4297.820313,4366.153809,4512.179688,4532.179688,4361.666504,4420.897461,0.000000,1.000000,34.000000,,,,0.000000,4.000000,4.000000,4.000000,4.000000,4.000000,4.000000,4.000000,4.000000,4.000000,4.000000,4.000000,4.000000,4.000000,4.000000,100.000000,,,,,,,,,,,,,,,,,,,,,,,,,,,,,,,,,,,,,,,,,,,,,,,,,,,,,,,,,,,,,,,,,,,,,,,,,,,,,,,,,,,,,,,,,,,,,,,,,,,,,,,,,,,,,,,,,,,,,
1768372709.014766,1768372709.015045,50.000000,0.000000,4309.871582,4316.666504,4328.717773,4331.922852,4320.000000,4315.769043,4306.282227,4329.102539,4295.256348,4367.563965,4513.205078,4530.897461,4364.102539,4424.230957,0.000000,1.000000,34.000000,,,,0.000000,4.000000,4.000000,4.000000,4.000000,4.000000,4.000000,4.000000,4.000000,4.000000,4.000000,4.000000,4.000000,4.000000,4.000000,100.000000,,,,,,,,,,,,,,,,,,,,,,,,,,,,,,,,,,,,,,,,,,,,,,,,,,,,,,,,,,,,,,,,,,,,,,,,,,,,,,,,,,,,,,,,,,,,,,,,,,,,,,,,,,,,,,,,,,,,,
1768372709.022575,1768372709.022853,51.000000,0.000000,4312.948730,4319.230957,4339.102539,4333.974121,4321.153809,4322.307617,4311.666504,4331.666504,4299.487305,4368.717773,4510.384766,4535.128418,4366.794922,4426.025879,0.000000,1.000000,34.000000,,,,0.000000,4.000000,4.000000,4.000000,4.000000,4.000000,4.000000,4.000000,4.000000,4.000000,4.000000,4.000000,4.000000,4.000000,4.000000,100.000000,,,,,,,,,,,,,,,,,,,,,,,,,,,,,,,,,,,,,,,,,,,,,,,,,,,,,,,,,,,,,,,,,,,,,,,,,,,,,,,,,,,,,,,,,,,,,,,,,,,,,,,,,,,,,,,,,,,,,
1768372709.030383,1768372709.030462,52.000000,0.000000,4311.153809,4321.410156,4341.153809,4336.794922,4324.102539,4315.128418,4310.000000,4334.102539,4304.615234,4368.846191,4505.512695,4532.692383,4363.589844,4426.153809,0.000000,1.000000,34.000000,,,,0.000000,4.000000,4.000000,4.000000,4.000000,4.000000,4.000000,4.000000,4.000000,4.000000,4.000000,4.000000,4.000000,4.000000,4.000000,100.000000,,,,,,,,,,,,,,,,,,,,,,,,,,,,,,,,,,,,,,,,,,,,,,,,,,,,,,,,,,,,,,,,,,,,,,,,,,,,,,,,,,,,,,,,,,,,,,,,,,,,,,,,,,,,,,,,,,,,,
1768372709.038191,1768372709.038270,53.000000,0.000000,4314.358887,4318.461426,4337.051270,4336.666504,4324.358887,4308.846191,4302.820313,4329.230957,4298.846191,4366.153809,4505.512695,4528.589844,4363.205078,4426.153809,0.000000,1.000000,34.000000,,,,0.000000,4.000000,4.000000,4.000000,4.000000,4.000000,4.000000,4.000000,4.000000,4.000000,4.000000,4.000000,4.000000,4.000000,4.000000,100.000000,,,,,,,,,,,,,,,,,,,,,,,,,,,,,,,,,,,,,,,,,,,,,,,,,,,,,,,,,,,,,,,,,,,,,,,,,,,,,,,,,,,,,,,,,,,,,,,,,,,,,,,,,,,,,,,,,,,,,
1768372709.046000,1768372709.046179,54.000000,0.000000,4319.487305,4316.025879,4337.948730,4334.230957,4325.256348,4320.000000,4306.922852,4330.641113,4298.589844,4369.358887,4513.461426,4535.512695,4366.153809,4426.410156,0.000000,1.000000,34.000000,,,,0.000000,4.000000,4.000000,4.000000,4.000000,4.000000,4.000000,4.000000,4.000000,4.000000,4.000000,4.000000,4.000000,4.000000,4.000000,100.000000,,,,,,,,,,,,,,,,,,,,,,,,,,,,,,,,,,,,,,,,,,,,,,,,,,,,,,,,,,,,,,,,,,,,,,,,,,,,,,,,,,,,,,,,,,,,,,,,,,,,,,,,,,,,,,,,,,,,,
1768372709.053808,1768372709.053987,55.000000,0.000000,4320.000000,4320.128418,4340.641113,4336.666504,4326.922852,4326.922852,4313.974121,4341.666504,4311.025879,4378.077148,4522.436035,4547.307617,4369.487305,4434.358887,0.000000,1.000000,34.000000,,,,0.000000,4.000000,4.000000,4.000000,4.000000,4.000000,4.000000,4.000000,4.000000,4.000000,4.000000,4.000000,4.000000,4.000000,4.000000,100.000000,,,,,,,,,,,,,,,,,,,,,,,,,,,,,,,,,,,,,,,,,,,,,,,,,,,,,,,,,,,,,,,,,,,,,,,,,,,,,,,,,,,,,,,,,,,,,,,,,,,,,,,,,,,,,,,,,,,,,
1768372709.061617,1768372709.061995,56.000000,0.000000,4322.820313,4324.743652,4341.794922,4341.922852,4325.000000,4319.102539,4311.666504,4343.846191,4314.487305,4377.563965,4521.538574,4549.358887,4371.794922,4442.692383,0.000000,1.000000,34.000000,,,,0.000000,4.000000,4.000000,4.000000,4.000000,4.000000,4.000000,4.000000,4.000000,4.000000,4.000000,4.000000,4.000000,4.000000,4.000000,100.000000,,,,,,,,,,,,,,,,,,,,,,,,,,,,,,,,,,,,,,,,,,,,,,,,,,,,,,,,,,,,,,,,,,,,,,,,,,,,,,,,,,,,,,,,,,,,,,,,,,,,,,,,,,,,,,,,,,,,,
1768372709.069425,1768372709.069804,57.000000,0.000000,4327.436035,4323.974121,4343.846191,4342.051270,4323.077148,4318.461426,4308.717773,4336.282227,4308.333496,4372.563965,4520.512695,4548.205078,4371.922852,4444.230957,0.000000,1.000000,34.000000,,,,0.000000,4.000000,4.000000,4.000000,4.000000,4.000000,4.000000,4.000000,4.000000,4.000000,4.000000,4.000000,4.000000,4.000000,4.000000,100.000000,,,,,,,,,,,,,,,,,,,,,,,,,,,,,,,,,,,,,,,,,,,,,,,,,,,,,,,,,,,,,,,,,,,,,,,,,,,,,,,,,,,,,,,,,,,,,,,,,,,,,,,,,,,,,,,,,,,,,
1768372709.077234,1768372709.077512,58.000000,0.000000,4326.794922,4318.461426,4343.205078,4339.487305,4323.077148,4325.128418,4311.153809,4335.000000,4309.102539,4376.666504,4522.820313,4549.871582,4368.717773,4443.589844,0.000000,1.000000,34.000000,,,,0.000000,4.000000,4.000000,4.000000,4.000000,4.000000,4.000000,4.000000,4.000000,4.000000,4.000000,4.000000,4.000000,4.000000,4.000000,100.000000,,,,,,,,,,,,,,,,,,,,,,,,,,,,,,,,,,,,,,,,,,,,,,,,,,,,,,,,,,,,,,,,,,,,,,,,,,,,,,,,,,,,,,,,,,,,,,,,,,,,,,,,,,,,,,,,,,,,,
1768372709.085042,1768372709.085321,59.000000,0.000000,4319.871582,4317.051270,4340.512695,4340.128418,4324.358887,4324.230957,4311.666504,4337.563965,4312.307617,4378.717773,4515.128418,4546.794922,4362.436035,4437.692383,0.000000,1.000000,34.000000,,,,0.000000,4.000000,4.000000,4.000000,4.000000,4.000000,4.000000,4.000000,4.000000,4.000000,4.000000,4.000000,4.000000,4.000000,4.000000,100.000000,,,,,,,,,,,,,,,,,,,,,,,,,,,,,,,,,,,,,,,,,,,,,,,,,,,,,,,,,,,,,,,,,,,,,,,,,,,,,,,,,,,,,,,,,,,,,,,,,,,,,,,,,,,,,,,,,,,,,
1768372709.092851,1768372709.092929,60.000000,0.000000,4314.487305,4315.897461,4336.410156,4338.717773,4324.615234,4321.922852,4306.794922,4333.333496,4311.025879,4370.897461,4505.512695,4539.358887,4358.974121,4428.974121,0.000000,1.000000,34.000000,,,,0.000000,4.000000,4.000000,4.000000,4.000000,4.000000,4.000000,4.000000,4.000000,4.000000,4.000000,4.000000,4.000000,4.000000,4.000000,100.000000,,,,,,,,,,,,,,,,,,,,,,,,,,,,,,,,,,,,,,,,,,,,,,,,,,,,,,,,,,,,,,,,,,,,,,,,,,,,,,,,,,,,,,,,,,,,,,,,,,,,,,,,,,,,,,,,,,,,,
1768372709.100659,1768372709.100738,61.000000,0.000000,4316.282227,4315.384766,4332.563965,4336.922852,4322.820313,4324.871582,4305.641113,4329.871582,4308.589844,4365.512695,4505.641113,4532.436035,4358.205078,4426.410156,0.000000,1.000000,34.000000,,,,0.000000,4.000000,4.000000,4.000000,4.000000,4.000000,4.000000,4.000000,4.000000,4.000000,4.000000,4.000000,4.000000,4.000000,4.000000,100.000000,,,,,,,,,,,,,,,,,,,,,,,,,,,,,,,,,,,,,,,,,,,,,,,,,,,,,,,,,,,,,,,,,,,,,,,,,,,,,,,,,,,,,,,,,,,,,,,,,,,,,,,,,,,,,,,,,,,,,
1768372709.108467,1768372709.108646,62.000000,0.000000,4320.897461,4320.384766,4332.307617,4340.000000,4323.717773,4326.410156,4309.871582,4333.461426,4309.615234,4367.307617,4507.692383,4528.461426,4359.615234,4430.641113,0.000000,1.000000,34.000000,,,,0.000000,4.000000,4.000000,4.000000,4.000000,4.000000,4.000000,4.000000,4.000000,4.000000,4.000000,4.000000,4.000000,4.000000,4.000000,100.000000,,,,,,,,,,,,,,,,,,,,,,,,,,,,,,,,,,,,,,,,,,,,,,,,0.376597,0.721145,0.104013,0.138281,0.078995,1.239881,0.582984,0.242285,0.167967,0.072824,0.437378,0.405405,0.224814,0.323028,0.116134,0.446259,0.569146,0.286967,0.200739,0.064327,0.421500,0.145161,0.116860,0.128218,0.046707,0.184903,0.139906,0.085523,0.194269,0.135157,0.227400,0.176489,0.174655,0.186108,0.152660,0.285021,0.254151,0.218930,0.075718,0.099461,0.905272,0.399577,0.309513,0.148853,0.105546,0.584802,0.173583,0.254225,0.316186,0.192603,0.720086,0.374497,0.255207,0.421599,0.155221,0.754747,0.332168,0.293098,0.827201,0.169309,0.419902,0.440771,0.179510,0.338360,0.174639,0.793346,0.431929,0.252965,0.362202,0.141870
1768372709.116276,1768372709.116455,63.000000,0.000000,4321.794922,4325.128418,4335.897461,4342.820313,4327.563965,4325.256348,4308.589844,4335.512695,4310.897461,4370.641113,4507.820313,4525.000000,4362.820313,4433.333496,0.000000,1.000000,34.000000,,,,0.000000,4.000000,4.000000,4.000000,4.000000,4.000000,4.000000,4.000000,4.000000,4.000000,4.000000,4.000000,4.000000,4.000000,4.000000,100.000000,,,,,,,,,,,,,,,,,,,,,,,,,,,,,,,,,,,,,,,,,,,,,,,,,,,,,,,,,,,,,,,,,,,,,,,,,,,,,,,,,,,,,,,,,,,,,,,,,,,,,,,,,,,,,,,,,,,,,
1768372709.124084,1768372709.124463,64.000000,0.000000,4318.461426,4324.230957,4335.384766,4342.051270,4329.358887,4324.487305,4302.436035,4334.487305,4306.282227,4368.333496,4505.000000,4521.538574,4358.974121,4431.282227,4056.000000,1.000000,34.000000,,,,0.000000,4.000000,4.000000,4.000000,4.000000,4.000000,4.000000,4.000000,4.000000,4.000000,4.000000,4.000000,4.000000,4.000000,4.000000,100.000000,,,,,,,,,,,,,,,,,,,,,,,,,,,,,,,,,,,,,,,,,,,,,,,,,,,,,,,,,,,,,,,,,,,,,,,,,,,,,,,,,,,,,,,,,,,,,,,,,,,,,,,,,,,,,,,,,,,,,
1768372709.131893,1768372709.132271,65.000000,0.000000,4314.102539,4320.000000,4327.692383,4338.077148,4326.410156,4325.000000,4306.153809,4330.897461,4305.000000,4363.077148,4502.051270,4520.512695,4352.948730,4426.282227,3976.000000,1.000000,34.000000,,,,0.000000,4.000000,4.000000,4.000000,4.000000,4.000000,4.000000,4.000000,4.000000,4.000000,4.000000,4.000000,4.000000,4.000000,4.000000,100.000000,,,,,,,,,,,,,,,,,,,,,,,,,,,,,,,,,,,,,,,,,,,,,,,,,,,,,,,,,,,,,,,,,,,,,,,,,,,,,,,,,,,,,,,,,,,,,,,,,,,,,,,,,,,,,,,,,,,,,
1768372709.139701,1768372709.140180,66.000000,0.000000,4318.974121,4319.743652,4326.666504,4335.256348,4323.846191,4325.512695,4310.256348,4327.436035,4308.461426,4365.128418,4504.615234,4527.563965,4356.410156,4427.692383,3877.000000,1.000000,34.000000,,,,0.000000,4.000000,4.000000,4.000000,4.000000,4.000000,4.000000,4.000000,4.000000,4.000000,4.000000,4.000000,4.000000,4.000000,4.000000,100.000000,,,,,,,,,,,,,,,,,,,,,,,,,,,,,,,,,,,,,,,,,,,,,,,,,,,,,,,,,,,,,,,,,,,,,,,,,,,,,,,,,,,,,,,,,,,,,,,,,,,,,,,,,,,,,,,,,,,,,
1768372709.147510,1768372709.147988,67.000000,0.000000,4324.615234,4318.461426,4333.589844,4336.025879,4323.077148,4323.333496,4302.692383,4328.461426,4307.820313,4366.794922,4508.205078,4534.102539,4359.358887,4432.563965,3857.000000,1.000000,34.000000,,,,0.000000,4.000000,4.000000,4.000000,4.000000,4.000000,4.000000,4.000000,4.000000,4.000000,4.000000,4.000000,4.000000,4.000000,4.000000,100.000000,,,,,,,,,,,,,,,,,,,,,,,,,,,,,,,,,,,,,,,,,,,,,,,,,,,,,,,,,,,,,,,,,,,,,,,,,,,,,,,,,,,,,,,,,,,,,,,,,,,,,,,,,,,,,,,,,,,,,
1768372709.155318,1768372709.155996,68.000000,0.000000,4317.051270,4312.948730,4337.179688,4335.641113,4322.692383,4319.615234,4298.077148,4329.871582,4307.436035,4363.974121,4506.922852,4531.153809,4356.794922,4431.153809,3782.000000,1.000000,34.000000,,,,0.000000,4.000000,4.000000,4.000000,4.000000,4.000000,4.000000,4.000000,4.000000,4.000000,4.000000,4.000000,4.000000,4.000000,4.000000,100.000000,,,,,,,,,,,,,,,,,,,,,,,,,,,,,,,,,,,,,,,,,,,,,,,,,,,,,,,,,,,,,,,,,,,,,,,,,,,,,,,,,,,,,,,,,,,,,,,,,,,,,,,,,,,,,,,,,,,,,
1768372709.163127,1768372709.163805,69.000000,0.000000,4311.922852,4312.820313,4333.461426,4333.846191,4323.717773,4321.666504,4303.205078,4329.358887,4310.512695,4366.794922,4506.794922,4528.974121,4359.102539,4429.615234,3747.000000,1.000000,34.000000,,,,0.000000,4.000000,4.000000,4.000000,4.000000,4.000000,4.000000,4.000000,4.000000,4.000000,4.000000,4.000000,4.000000,4.000000,4.000000,100.000000,,,,,,,,,,,,,,,,,,,,,,,,,,,,,,,,,,,,,,,,,,,,,,,,,,,,,,,,,,,,,,,,,,,,,,,,,,,,,,,,,,,,,,,,,,,,,,,,,,,,,,,,,,,,,,,,,,,,,
1768372709.170935,1768372709.171513,70.000000,0.000000,4318.717773,4316.025879,4328.974121,4335.000000,4325.769043,4325.512695,4306.794922,4330.000000,4310.000000,4371.025879,4507.948730,4530.769043,4363.333496,4432.179688,3745.000000,1.000000,34.000000,,,,0.000000,4.000000,4.000000,4.000000,4.000000,4.000000,4.000000,4.000000,4.000000,4.000000,4.000000,4.000000,4.000000,4.000000,4.000000,100.000000,,,,,,,,,,,,,,,,,,,,,,,,,,,,,,,,,,,,,,,,,,,,,,,,,,,,,,,,,,,,,,,,,,,,,,,,,,,,,,,,,,,,,,,,,,,,,,,,,,,,,,,,,,,,,,,,,,,,,
1768372709.178743,1768372709.179322,71.000000,0.000000,4322.307617,4314.615234,4329.358887,4336.794922,4326.153809,4325.512695,4306.153809,4331.794922,4308.846191,4365.897461,4507.179688,4530.769043,4363.205078,4431.794922,3747.000000,1.000000,34.000000,,,,0.000000,4.000000,4.000000,4.000000,4.000000,4.000000,4.000000,4.000000,4.000000,4.000000,4.000000,4.000000,4.000000,4.000000,4.000000,100.000000,,,,,,,,,,,,,,,,,,,,,,,,,,,,,,,,,,,,,,,,,,,,,,,,,,,,,,,,,,,,,,,,,,,,,,,,,,,,,,,,,,,,,,,,,,,,,,,,,,,,,,,,,,,,,,,,,,,,,
1768372709.186552,1768372709.186930,72.000000,0.000000,4321.538574,4315.384766,4334.358887,4338.461426,4324.871582,4325.128418,4307.179688,4335.128418,4311.666504,4362.179688,4507.051270,4532.179688,4359.102539,4432.563965,3947.000000,1.000000,34.000000,,,,0.000000,4.000000,4.000000,4.000000,4.000000,4.000000,4.000000,4.000000,4.000000,4.000000,4.000000,4.000000,4.000000,4.000000,4.000000,100.000000,,,,,,,,,,,,,,,,,,,,,,,,,,,,,,,,,,,,,,,,,,,,,,,,,,,,,,,,,,,,,,,,,,,,,,,,,,,,,,,,,,,,,,,,,,,,,,,,,,,,,,,,,,,,,,,,,,,,,
1768372709.194360,1768372709.194739,73.000000,0.000000,4328.333496,4322.307617,4342.051270,4339.615234,4326.410156,4326.025879,4309.871582,4335.000000,4313.205078,4366.922852,4510.897461,4537.692383,4358.461426,4441.538574,3927.000000,1.000000,34.000000,,,,0.000000,4.000000,4.000000,4.000000,4.000000,4.000000,4.000000,4.000000,4.000000,4.000000,4.000000,4.000000,4.000000,4.000000,4.000000,100.000000,,,,,,,,,,,,,,,,,,,,,,,,,,,,,,,,,,,,,,,,,,,,,,,,,,,,,,,,,,,,,,,,,,,,,,,,,,,,,,,,,,,,,,,,,,,,,,,,,,,,,,,,,,,,,,,,,,,,,
1768372709.202169,1768372709.202447,74.000000,0.000000,4328.333496,4318.974121,4340.641113,4334.358887,4325.256348,4327.051270,4310.128418,4328.589844,4311.153809,4360.897461,4506.410156,4535.384766,4358.333496,4443.205078,4392.000000,1.000000,34.000000,,,,0.000000,4.000000,4.000000,4.000000,4.000000,4.000000,4.000000,4.000000,4.000000,4.000000,4.000000,4.000000,4.000000,4.000000,4.000000,100.000000,,,,,,,,,,,,,,,,,,,,,,,,,,,,,,,,,,,,,,,,,,,,,,,,,,,,,,,,,,,,,,,,,,,,,,,,,,,,,,,,,,,,,,,,,,,,,,,,,,,,,,,,,,,,,,,,,,,,,
1768372709.209977,1768372709.210256,75.000000,0.000000,4312.948730,4306.538574,4328.205078,4324.871582,4320.000000,4326.153809,4307.692383,4324.102539,4309.230957,4350.769043,4494.743652,4525.128418,4351.922852,4431.538574,4676.000000,1.000000,34.000000,,,,0.000000,4.000000,4.000000,4.000000,4.000000,4.000000,4.000000,4.000000,4.000000,4.000000,4.000000,4.000000,4.000000,4.000000,4.000000,100.000000,,,,,,,,,,,,,,,,,,,,,,,,,,,,,,,,,,,,,,,,,,,,,,,,,,,,,,,,,,,,,,,,,,,,,,,,,,,,,,,,,,,,,,,,,,,,,,,,,,,,,,,,,,,,,,,,,,,,,
1768372709.217786,1768372709.217865,76.000000,0.000000,4308.077148,4303.717773,4324.358887,4321.025879,4319.871582,4325.769043,4305.769043,4330.128418,4312.820313,4357.948730,4494.102539,4527.820313,4349.871582,4429.230957,5011.000000,1.000000,34.000000,,,,0.000000,4.000000,4.000000,4.000000,4.000000,4.000000,4.000000,4.000000,4.000000,4.000000,4.000000,4.000000,4.000000,4.000000,4.000000,100.000000,,,,,,,,,,,,,,,,,,,,,,,,,,,,,,,,,,,,,,,,,,,,,,,,,,,,,,,,,,,,,,,,,,,,,,,,,,,,,,,,,,,,,,,,,,,,,,,,,,,,,,,,,,,,,,,,,,,,,
1768372709.225594,1768372709.225673,77.000000,0.000000,4324.871582,4311.153809,4341.282227,4327.948730,4324.358887,4325.384766,4308.974121,4336.025879,4322.307617,4373.333496,4508.077148,4543.846191,4363.077148,4446.410156,5420.000000,1.000000,34.000000,,,,0.000000,4.000000,4.000000,4.000000,4.000000,4.000000,4.000000,4.000000,4.000000,4.000000,4.000000,4.000000,4.000000,4.000000,4.000000,100.000000,,,,,,,,,,,,,,,,,,,,,,,,,,,,,,,,,,,,,,,,,,,,,,,,,,,,,,,,,,,,,,,,,,,,,,,,,,,,,,,,,,,,,,,,,,,,,,,,,,,,,,,,,,,,,,,,,,,,,
1768372709.233403,1768372709.233382,78.000000,0.000000,4339.487305,4319.230957,4353.974121,4339.487305,4326.025879,4325.000000,4312.051270,4335.256348,4328.205078,4376.538574,4520.641113,4551.794922,4374.743652,4461.410156,4392.000000,1.000000,34.000000,,,,0.000000,4.000000,4.000000,4.000000,4.000000,4.000000,4.000000,4.000000,4.000000,4.000000,4.000000,4.000000,4.000000,4.000000,4.000000,100.000000,1.000000,75.000000,4.000000,4.000000,4.000000,4.000000,1.000000,4.000000,4.000000,4.000000,4.000000,4.000000,4.000000,4.000000,4.000000,4.000000,,,,,,,,,,,,,,,,,,,,,,,,,,,,,,,,0.440361,0.854259,0.122550,0.131911,0.075658,1.155249,0.510816,0.233208,0.154777,0.069989,0.487453,0.477194,0.239547,0.281113,0.113931,0.383774,0.572289,0.306187,0.180006,0.059184,0.441678,0.158149,0.132635,0.133996,0.047512,0.184871,0.167979,0.120259,0.191818,0.149301,0.225470,0.185309,0.194788,0.170185,0.148456,0.320863,0.205831,0.227482,0.068819,0.096230,1.271420,0.408558,0.322705,0.142909,0.104194,0.606998,0.155282,0.267276,0.305439,0.186743,0.817545,0.336009,0.281523,0.376210,0.142894,0.807712,0.277424,0.275870,0.754907,0.169980,0.468179,0.454455,0.195726,0.289512,0.170756,1.033497,0.463545,0.267958,0.298026,0.136195
1768372709.241211,1768372709.241190,79.000000,0.000000,4334.230957,4318.333496,4344.358887,4339.230957,4325.256348,4325.512695,4311.282227,4334.230957,4325.512695,4370.384766,4516.666504,4546.794922,4369.871582,4455.000000,4676.000000,1.000000,34.000000,,,,0.000000,4.000000,4.000000,4.000000,4.000000,4.000000,4.000000,4.000000,4.000000,4.000000,4.000000,4.000000,4.000000,4.000000,4.000000,100.000000,,,,,,,,,,,,,,,,,,,,,,,,,,,,,,,,,,,,,,,,,,,,,,,,,,,,,,,,,,,,,,,,,,,,,,,,,,,,,,,,,,,,,,,,,,,,,,,,,,,,,,,,,,,,,,,,,,,,,
1768372709.249020,1768372709.249198,80.000000,0.000000,4325.000000,4311.666504,4333.205078,4328.717773,4323.461426,4326.153809,4308.077148,4332.436035,4320.256348,4368.589844,4509.102539,4542.051270,4364.487305,4444.102539,5011.000000,1.000000,34.000000,,,,0.000000,4.000000,4.000000,4.000000,4.000000,4.000000,4.000000,4.000000,4.000000,4.000000,4.000000,4.000000,4.000000,4.000000,4.000000,100.000000,,,,,,,,,,,,,,,,,,,,,,,,,,,,,,,,,,,,,,,,,,,,,,,,,,,,,,,,,,,,,,,,,,,,,,,,,,,,,,,,,,,,,,,,,,,,,,,,,,,,,,,,,,,,,,,,,,,,,
1768372709.256828,1768372709.257007,81.000000,0.000000,4324.871582,4310.769043,4336.410156,4325.128418,4321.410156,4324.871582,4305.641113,4329.743652,4320.256348,4370.769043,4509.871582,4541.410156,4368.205078,4445.897461,5420.000000,1.000000,34.000000,,,,0.000000,4.000000,4.000000,4.000000,4.000000,4.000000,4.000000,4.000000,4.000000,4.000000,4.000000,4.000000,4.000000,4.000000,4.000000,100.000000,,,,,,,,,,,,,,,,,,,,,,,,,,,,,,,,,,,,,,,,,,,,,,,,,,,,,,,,,,,,,,,,,,,,,,,,,,,,,,,,,,,,,,,,,,,,,,,,,,,,,,,,,,,,,,,,,,,,,
1768372709.264636,1768372709.264915,82.000000,0.000000,4326.282227,4309.358887,4340.384766,4328.461426,4323.077148,4322.948730,4304.102539,4329.487305,4324.871582,4371.025879,4511.153809,4544.358887,4368.461426,4450.256348,4392.000000,1.000000,34.000000,,,,0.000000,4.000000,4.000000,4.000000,4.000000,4.000000,4.000000,4.000000,4.000000,4.000000,4.000000,4.000000,4.000000,4.000000,4.000000,100.000000,,,,,,,,,,,,,,,,,,,,,,,,,,,,,,,,,,,,,,,,,,,,,,,,,,,,,,,,,,,,,,,,,,,,,,,,,,,,,,,,,,,,,,,,,,,,,,,,,,,,,,,,,,,,,,,,,,,,,
1768372709.272445,1768372709.272723,83.000000,0.000000,4326.282227,4307.692383,4337.563965,4328.846191,4324.358887,4325.128418,4305.256348,4330.769043,4326.666504,4368.589844,4507.179688,4544.230957,4361.410156,4444.487305,4676.000000,1.000000,34.000000,,,,0.000000,4.000000,4.000000,4.000000,4.000000,4.000000,4.000000,4.000000,4.000000,4.000000,4.000000,4.000000,4.000000,4.000000,4.000000,100.000000,,,,,,,,,,,,,,,,,,,,,,,,,,,,,,,,,,,,,,,,,,,,,,,,,,,,,,,,,,,,,,,,,,,,,,,,,,,,,,,,,,,,,,,,,,,,,,,,,,,,,,,,,,,,,,,,,,,,,
1768372709.280253,1768372709.280332,84.000000,0.000000,4326.922852,4311.666504,4334.487305,4328.333496,4322.436035,4327.692383,4305.256348,4329.358887,4321.922852,4365.512695,4503.589844,4536.282227,4357.948730,4440.000000,5011.000000,1.000000,34.000000,,,,0.000000,4.000000,4.000000,4.000000,4.000000,4.000000,4.000000,4.000000,4.000000,4.000000,4.000000,4.000000,4.000000,4.000000,4.000000,100.000000,,,,,,,,,,,,,,,,,,,,,,,,,,,,,,,,,,,,,,,,,,,,,,,,,,,,,,,,,,,,,,,,,,,,,,,,,,,,,,,,,,,,,,,,,,,,,,,,,,,,,,,,,,,,,,,,,,,,,
1768372709.288062,1768372709.288141,85.000000,0.000000,4324.871582,4312.820313,4332.436035,4327.051270,4320.000000,4324.871582,4299.871582,4324.102539,4319.615234,4360.128418,4503.333496,4526.282227,4360.128418,4443.974121,5420.000000,1.000000,34.000000,,,,0.000000,4.000000,4.000000,4.000000,4.000000,4.000000,4.000000,4.000000,4.000000,4.000000,4.000000,4.000000,4.000000,4.000000,4.000000,100.000000,,,,,,,,,,,,,,,,,,,,,,,,,,,,,,,,,,,,,,,,,,,,,,,,,,,,,,,,,,,,,,,,,,,,,,,,,,,,,,,,,,,,,,,,,,,,,,,,,,,,,,,,,,,,,,,,,,,,,
1768372709.295870,1768372709.296049,86.000000,0.000000,4321.025879,4310.384766,4328.846191,4325.512695,4317.948730,4319.871582,4293.717773,4322.820313,4320.256348,4357.436035,4502.436035,4520.641113,4359.743652,4442.179688,4392.000000,1.000000,34.000000,,,,0.000000,4.000000,4.000000,4.000000,4.000000,4.000000,4.000000,4.000000,4.000000,4.000000,4.000000,4.000000,4.000000,4.000000,4.000000,100.000000,,,,,,,,,,,,,,,,,,,,,,,,,,,,,,,,,,,,,,,,,,,,,,,,,,,,,,,,,,,,,,,,,,,,,,,,,,,,,,,,,,,,,,,,,,,,,,,,,,,,,,,,,,,,,,,,,,,,,
1768372709.303678,1768372709.303857,87.000000,0.000000,4322.948730,4312.179688,4325.769043,4326.410156,4321.282227,4322.179688,4295.897461,4325.384766,4313.717773,4358.333496,4500.256348,4518.205078,4356.410156,4434.230957,4676.000000,1.000000,34.000000,,,,0.000000,4.000000,4.000000,4.000000,4.000000,4.000000,4.000000,4.000000,4.000000,4.000000,4.000000,4.000000,4.000000,4.000000,4.000000,100.000000,,,,,,,,,,,,,,,,,,,,,,,,,,,,,,,,,,,,,,,,,,,,,,,,,,,,,,,,,,,,,,,,,,,,,,,,,,,,,,,,,,,,,,,,,,,,,,,,,,,,,,,,,,,,,,,,,,,,,
1768372709.311487,1768372709.311866,88.000000,0.000000,4329.102539,4314.871582,4328.461426,4328.589844,4325.641113,4333.205078,4307.179688,4327.307617,4313.333496,4356.794922,4500.512695,4522.563965,4355.384766,4435.641113,5011.000000,1.000000,34.000000,,,,0.000000,4.000000,4.000000,4.000000,4.000000,4.000000,4.000000,4.000000,4.000000,4.000000,4.000000,4.000000,4.000000,4.000000,4.000000,100.000000,,,,,,,,,,,,,,,,,,,,,,,,,,,,,,,,,,,,,,,,,,,,,,,,,,,,,,,,,,,,,,,,,,,,,,,,,,,,,,,,,,,,,,,,,,,,,,,,,,,,,,,,,,,,,,,,,,,,,
1768372709.319295,1768372709.319674,89.000000,0.000000,4327.051270,4309.358887,4329.230957,4323.717773,4321.153809,4336.153809,4311.538574,4331.538574,4324.615234,4358.205078,4503.077148,4530.128418,4359.871582,4440.256348,5420.000000,1.000000,34.000000,,,,0.000000,4.000000,4.000000,4.000000,4.000000,4.000000,4.000000,4.000000,4.000000,4.000000,4.000000,4.000000,4.000000,4.000000,4.000000,100.000000,,,,,,,,,,,,,,,,,,,,,,,,,,,,,,,,,,,,,,,,,,,,,,,,,,,,,,,,,,,,,,,,,,,,,,,,,,,,,,,,,,,,,,,,,,,,,,,,,,,,,,,,,,,,,,,,,,,,,
1768372709.327104,1768372709.327582,90.000000,0.000000,4316.025879,4301.794922,4318.205078,4314.615234,4317.307617,4326.922852,4301.794922,4329.615234,4324.487305,4358.205078,4498.461426,4522.051270,4358.589844,4432.563965,4392.000000,1.000000,34.000000,,,,0.000000,4.000000,4.000000,4.000000,4.000000,4.000000,4.000000,4.000000,4.000000,4.000000,4.000000,4.000000,4.000000,4.000000,4.000000,100.000000,,,,,,,,,,,,,,,,,,,,,,,,,,,,,,,,,,,,,,,,,,,,,,,,,,,,,,,,,,,,,,,,,,,,,,,,,,,,,,,,,,,,,,,,,,,,,,,,,,,,,,,,,,,,,,,,,,,,,
1768372709.334912,1768372709.335391,91.000000,0.000000,4308.461426,4301.025879,4307.307617,4311.282227,4321.282227,4321.410156,4297.563965,4318.333496,4314.358887,4354.615234,4489.358887,4507.563965,4349.230957,4423.461426,4676.000000,1.000000,34.000000,,,,0.000000,4.000000,4.000000,4.000000,4.000000,4.000000,4.000000,4.000000,4.000000,4.000000,4.000000,4.000000,4.000000,4.000000,4.000000,100.000000,,,,,,,,,,,,,,,,,,,,,,,,,,,,,,,,,,,,,,,,,,,,,,,,,,,,,,,,,,,,,,,,,,,,,,,,,,,,,,,,,,,,,,,,,,,,,,,,,,,,,,,,,,,,,,,,,,,,,
1768372709.342721,1768372709.343399,92.000000,0.000000,4311.153809,4307.563965,4311.666504,4315.897461,4319.230957,4325.512695,4301.153809,4316.153809,4316.794922,4359.615234,4490.641113,4511.025879,4349.102539,4427.179688,5011.000000,1.000000,34.000000,,,,0.000000,4.000000,4.000000,4.000000,4.000000,4.000000,4.000000,4.000000,4.000000,4.000000,4.000000,4.000000,4.000000,4.000000,4.000000,100.000000,,,,,,,,,,,,,,,,,,,,,,,,,,,,,,,,,,,,,,,,,,,,,,,,,,,,,,,,,,,,,,,,,,,,,,,,,,,,,,,,,,,,,,,,,,,,,,,,,,,,,,,,,,,,,,,,,,,,,
1768372709.350529,1768372709.351208,93.000000,0.000000,4315.384766,4312.948730,4320.256348,4321.538574,4310.256348,4326.025879,4297.179688,4321.282227,4325.641113,4365.128418,4495.128418,4518.974121,4356.922852,4432.948730,5420.000000,1.000000,34.000000,,,,0.000000,4.000000,4.000000,4.000000,4.000000,4.000000,4.000000,4.000000,4.000000,4.000000,4.000000,4.000000,4.000000,4.000000,4.000000,100.000000,,,,,,,,,,,,,,,,,,,,,,,,,,,,,,,,,,,,,,,,,,,,,,,,,,,,,,,,,,,,,,,,,,,,,,,,,,,,,,,,,,,,,,,,,,,,,,,,,,,,,,,,,,,,,,,,,,,,,
1768372709.358338,1768372709.358916,94.000000,0.000000,4312.692383,4312.948730,4317.563965,4321.794922,4309.358887,4323.077148,4293.333496,4318.974121,4323.846191,4359.615234,4493.589844,4515.769043,4356.282227,4432.563965,4392.000000,1.000000,34.000000,,,,0.000000,4.000000,4.000000,4.000000,4.000000,4.000000,4.000000,4.000000,4.000000,4.000000,4.000000,4.000000,4.000000,4.000000,4.000000,100.000000,,,,,,,,,,,,,,,,,,,,,,,,,,,,,,,,,,,,,,,,,,,,,,,,0.522145,0.974335,0.141713,0.130147,0.075323,1.037882,0.469384,0.229875,0.144788,0.064756,0.571883,0.521829,0.241591,0.242272,0.112203,0.343824,0.571782,0.316502,0.160325,0.053652,0.421471,0.165888,0.141048,0.130244,0.047066,0.195772,0.196401,0.157128,0.180071,0.164378,0.226517,0.196180,0.210992,0.150017,0.144318,0.338224,0.157816,0.232088,0.066743,0.093238,1.619868,0.413511,0.317973,0.139595,0.102755,0.665419,0.165525,0.292238,0.293472,0.177292,0.904449,0.346172,0.312061,0.325413,0.131269,0.865956,0.250658,0.253543,0.638558,0.170238,0.531802,0.487464,0.219201,0.244126,0.166884,1.248819,0.517880,0.271275,0.235988,0.130334
1768372709.366146,1768372709.366725,95.000000,0.000000,4313.333496,4317.051270,4314.230957,4321.282227,4316.153809,4327.563965,4301.794922,4317.692383,4320.512695,4355.897461,4493.077148,4512.436035,4354.871582,4432.307617,4676.000000,1.000000,34.000000,,,,0.000000,4.000000,4.000000,4.000000,4.000000,4.000000,4.000000,4.000000,4.000000,4.000000,4.000000,4.000000,4.000000,4.000000,4.000000,100.000000,,,,,,,,,,,,,,,,,,,,,,,,,,,,,,,,,,,,,,,,,,,,,,,,,,,,,,,,,,,,,,,,,,,,,,,,,,,,,,,,,,,,,,,,,,,,,,,,,,,,,,,,,,,,,,,,,,,,,
1768372709.373954,1768372709.374733,96.000000,0.000000,4321.025879,4324.743652,4320.256348,4325.000000,4320.769043,4329.743652,4306.666504,4320.512695,4321.410156,4357.051270,4492.307617,4514.102539,4356.282227,4434.102539,5011.000000,1.000000,34.000000,,,,0.000000,4.000000,4.000000,4.000000,4.000000,4.000000,4.000000,4.000000,4.000000,4.000000,4.000000,4.000000,4.000000,4.000000,4.000000,100.000000,,,,,,,,,,,,,,,,,,,,,,,,,,,,,,,,,,,,,,,,,,,,,,,,,,,,,,,,,,,,,,,,,,,,,,,,,,,,,,,,,,,,,,,,,,,,,,,,,,,,,,,,,,,,,,,,,,,,,
1768372709.381763,1768372709.382541,97.000000,0.000000,4324.743652,4327.179688,4326.153809,4328.461426,4321.794922,4327.179688,4300.769043,4318.589844,4320.769043,4350.000000,4490.897461,4514.743652,4351.538574,4433.461426,5420.000000,1.000000,34.000000,,,,0.000000,4.000000,4.000000,4.000000,4.000000,4.000000,4.000000,4.000000,4.000000,4.000000,4.000000,4.000000,4.000000,4.000000,4.000000,100.000000,,,,,,,,,,,,,,,,,,,,,,,,,,,,,,,,,,,,,,,,,,,,,,,,,,,,,,,,,,,,,,,,,,,,,,,,,,,,,,,,,,,,,,,,,,,,,,,,,,,,,,,,,,,,,,,,,,,,,
1768372709.389571,1768372709.390250,98.000000,0.000000,4324.487305,4325.769043,4321.922852,4327.307617,4322.307617,4331.922852,4303.077148,4317.436035,4320.512695,4343.461426,4492.436035,4516.794922,4349.230957,4434.102539,4392.000000,1.000000,34.000000,,,,0.000000,4.000000,4.000000,4.000000,4.000000,4.000000,4.000000,4.000000,4.000000,4.000000,4.000000,4.000000,4.000000,4.000000,4.000000,100.000000,,,,,,,,,,,,,,,,,,,,,,,,,,,,,,,,,,,,,,,,,,,,,,,,,,,,,,,,,,,,,,,,,,,,,,,,,,,,,,,,,,,,,,,,,,,,,,,,,,,,,,,,,,,,,,,,,,,,,
1768372709.397380,1768372709.398058,99.000000,0.000000,4320.000000,4325.000000,4313.333496,4325.384766,4321.153809,4335.256348,4306.410156,4319.102539,4318.205078,4346.794922,4492.948730,4518.205078,4354.743652,4435.769043,4676.000000,1.000000,34.000000,,,,0.000000,4.000000,4.000000,4.000000,4.000000,4.000000,4.000000,4.000000,4.000000,4.000000,4.000000,4.000000,4.000000,4.000000,4.000000,100.000000,,,,,,,,,,,,,,,,,,,,,,,,,,,,,,,,,,,,,,,,,,,,,,,,,,,,,,,,,,,,,,,,,,,,,,,,,,,,,,,,,,,,,,,,,,,,,,,,,,,,,,,,,,,,,,,,,,,,,
1768372709.405188,1768372709.405667,100.000000,0.000000,4315.256348,4325.256348,4310.000000,4325.384766,4320.384766,4328.589844,4299.358887,4316.922852,4316.410156,4355.897461,4491.538574,4512.948730,4355.512695,4431.538574,5011.000000,1.000000,34.000000,,,,0.000000,4.000000,4.000000,4.000000,4.000000,4.000000,4.000000,4.000000,4.000000,4.000000,4.000000,4.000000,4.000000,4.000000,4.000000,100.000000,,,,,,,,,,,,,,,,,,,,,,,,,,,,,,,,,,,,,,,,,,,,,,,,,,,,,,,,,,,,,,,,,,,,,,,,,,,,,,,,,,,,,,,,,,,,,,,,,,,,,,,,,,,,,,,,,,,,,
1768372709.412997,1768372709.413475,101.000000,0.000000,4317.307617,4324.743652,4310.128418,4322.563965,4318.974121,4325.641113,4299.487305,4317.563965,4318.333496,4357.179688,4490.128418,4507.820313,4347.563965,4429.615234,5420.000000,1.000000,34.000000,,,,0.000000,4.000000,4.000000,4.000000,4.000000,4.000000,4.000000,4.000000,4.000000,4.000000,4.000000,4.000000,4.000000,4.000000,4.000000,100.000000,,,,,,,,,,,,,,,,,,,,,,,,,,,,,,,,,,,,,,,,,,,,,,,,,,,,,,,,,,,,,,,,,,,,,,,,,,,,,,,,,,,,,,,,,,,,,,,,,,,,,,,,,,,,,,,,,,,,,
1768372709.420805,1768372709.421184,102.000000,0.000000,4324.743652,4324.743652,4312.692383,4323.589844,4315.897461,4327.948730,4302.563965,4320.512695,4322.563965,4347.948730,4490.256348,4513.205078,4345.769043,4439.743652,4392.000000,1.000000,34.000000,,,,0.000000,4.000000,4.000000,4.000000,4.000000,4.000000,4.000000,4.000000,4.000000,4.000000,4.000000,4.000000,4.000000,4.000000,4.000000,100.000000,,,,,,,,,,,,,,,,,,,,,,,,,,,,,,,,,,,,,,,,,,,,,,,,,,,,,,,,,,,,,,,,,,,,,,,,,,,,,,,,,,,,,,,,,,,,,,,,,,,,,,,,,,,,,,,,,,,,,
1768372709.428614,1768372709.428992,103.000000,0.000000,4322.692383,4326.282227,4317.051270,4326.538574,4318.333496,4326.666504,4297.179688,4319.102539,4325.000000,4348.333496,4492.948730,4521.538574,4355.641113,4448.589844,4676.000000,1.000000,34.000000,,,,0.000000,4.000000,4.000000,4.000000,4.000000,4.000000,4.000000,4.000000,4.000000,4.000000,4.000000,4.000000,4.000000,4.000000,4.000000,100.000000,,,,,,,,,,,,,,,,,,,,,,,,,,,,,,,,,,,,,,,,,,,,,,,,,,,,,,,,,,,,,,,,,,,,,,,,,,,,,,,,,,,,,,,,,,,,,,,,,,,,,,,,,,,,,,,,,,,,,
1768372709.436422,1768372709.437001,104.000000,0.000000,4313.589844,4323.333496,4315.128418,4319.743652,4320.897461,4326.538574,4298.205078,4317.179688,4323.589844,4357.307617,4492.307617,4517.563965,4359.615234,4445.384766,5011.000000,1.000000,34.000000,,,,0.000000,4.000000,4.000000,4.000000,4.000000,4.000000,4.000000,4.000000,4.000000,4.000000,4.000000,4.000000,4.000000,4.000000,4.000000,100.000000,,,,,,,,,,,,,,,,,,,,,,,,,,,,,,,,,,,,,,,,,,,,,,,,,,,,,,,,,,,,,,,,,,,,,,,,,,,,,,,,,,,,,,,,,,,,,,,,,,,,,,,,,,,,,,,,,,,,,
1768372709.444230,1768372709.444809,105.000000,0.000000,4309.358887,4318.974121,4309.871582,4314.358887,4315.641113,4325.897461,4305.256348,4318.846191,4323.461426,4356.282227,4490.384766,4511.538574,4355.000000,4441.282227,5420.000000,1.000000,34.000000,,,,0.000000,4.000000,4.000000,4.000000,4.000000,4.000000,4.000000,4.000000,4.000000,4.000000,4.000000,4.000000,4.000000,4.000000,4.000000,100.000000,,,,,,,,,,,,,,,,,,,,,,,,,,,,,,,,,,,,,,,,,,,,,,,,,,,,,,,,,,,,,,,,,,,,,,,,,,,,,,,,,,,,,,,,,,,,,,,,,,,,,,,,,,,,,,,,,,,,,
1768372709.452039,1768372709.452717,106.000000,0.000000,4310.769043,4318.974121,4313.461426,4319.615234,4312.948730,4326.794922,4303.333496,4323.333496,4325.128418,4352.692383,4496.666504,4519.615234,4359.487305,4443.717773,4392.000000,1.000000,34.000000,,,,0.000000,4.000000,4.000000,4.000000,4.000000,4.000000,4.000000,4.000000,4.000000,4.000000,4.000000,4.000000,4.000000,4.000000,4.000000,100.000000,,,,,,,,,,,,,,,,,,,,,,,,,,,,,,,,,,,,,,,,,,,,,,,,,,,,,,,,,,,,,,,,,,,,,,,,,,,,,,,,,,,,,,,,,,,,,,,,,,,,,,,,,,,,,,,,,,,,,
1768372709.459847,1768372709.460526,107.000000,0.000000,4316.025879,4317.179688,4321.922852,4320.000000,4318.333496,4333.717773,4304.102539,4330.128418,4328.589844,4357.692383,4507.051270,4529.615234,4368.846191,4448.205078,4676.000000,1.000000,34.000000,,,,0.000000,4.000000,4.000000,4.000000,4.000000,4.000000,4.000000,4.000000,4.000000,4.000000,4.000000,4.000000,4.000000,4.000000,4.000000,100.000000,,,,,,,,,,,,,,,,,,,,,,,,,,,,,,,,,,,,,,,,,,,,,,,,,,,,,,,,,,,,,,,,,,,,,,,,,,,,,,,,,,,,,,,,,,,,,,,,,,,,,,,,,,,,,,,,,,,,,
1768372709.467656,1768372709.468534,108.000000,0.000000,4320.897461,4315.769043,4324.102539,4313.846191,4321.282227,4336.153809,4312.436035,4336.794922,4337.307617,4361.538574,4509.487305,4529.871582,4365.256348,4450.641113,5011.000000,1.000000,34.000000,,,,0.000000,4.000000,4.000000,4.000000,4.000000,4.000000,4.000000,4.000000,4.000000,4.000000,4.000000,4.000000,4.000000,4.000000,4.000000,100.000000,,,,,,,,,,,,,,,,,,,,,,,,,,,,,,,,,,,,,,,,,,,,,,,,,,,,,,,,,,,,,,,,,,,,,,,,,,,,,,,,,,,,,,,,,,,,,,,,,,,,,,,,,,,,,,,,,,,,,
1768372709.475464,1768372709.476342,109.000000,0.000000,4321.025879,4315.128418,4322.563965,4314.743652,4319.871582,4336.538574,4312.307617,4333.717773,4342.563965,4360.384766,4502.563965,4529.102539,4362.820313,4450.641113,5420.000000,1.000000,34.000000,,,,0.000000,4.000000,4.000000,4.000000,4.000000,4.000000,4.000000,4.000000,4.000000,4.000000,4.000000,4.000000,4.000000,4.000000,4.000000,100.000000,,,,,,,,,,,,,,,,,,,,,,,,,,,,,,,,,,,,,,,,,,,,,,,,,,,,,,,,,,,,,,,,,,,,,,,,,,,,,,,,,,,,,,,,,,,,,,,,,,,,,,,,,,,,,,,,,,,,,
1768372709.483273,1768372709.484251,110.000000,0.000000,4321.025879,4314.358887,4325.000000,4319.358887,4319.102539,4340.384766,4309.102539,4328.077148,4334.102539,4360.512695,4499.871582,4532.436035,4366.922852,4451.666504,4392.000000,1.000000,34.000000,,,,0.000000,4.000000,4.000000,4.000000,4.000000,4.000000,4.000000,4.000000,4.000000,4.000000,4.000000,4.000000,4.000000,4.000000,4.000000,100.000000,,,,,,,,,,,,,,,,,,,,,,,,,,,,,,,,,,,,,,,,,,,,,,,,0.596229,1.036879,0.161739,0.135843,0.078611,0.880723,0.441720,0.237511,0.139624,0.058116,0.663518,0.526991,0.233227,0.220468,0.114270,0.320029,0.555229,0.319342,0.145033,0.049173,0.366778,0.167307,0.141401,0.117182,0.045457,0.208327,0.219244,0.189385,0.161158,0.174913,0.226427,0.203473,0.216647,0.128981,0.137914,0.329502,0.129558,0.232263,0.070500,0.090372,1.839773,0.404894,0.291388,0.137586,0.100461,0.695457,0.213658,0.314719,0.277211,0.167416,0.950262,0.413129,0.327937,0.279438,0.122186,0.923297,0.271135,0.233239,0.509588,0.168568,0.600434,0.524743,0.235341,0.209538,0.163369,1.383999,0.562536,0.260829,0.194078,0.125315
1768372709.491081,1768372709.492059,111.000000,0.000000,4322.692383,4315.769043,4329.487305,4321.538574,4320.641113,4338.333496,4308.974121,4328.717773,4324.615234,4354.102539,4502.051270,4531.282227,4362.179688,4448.589844,4676.000000,1.000000,34.000000,,,,0.000000,4.000000,4.000000,4.000000,4.000000,4.000000,4.000000,4.000000,4.000000,4.000000,4.000000,4.000000,4.000000,4.000000,4.000000,100.000000,,,,,,,,,,,,,,,,,,,,,,,,,,,,,,,,,,,,,,,,,,,,,,,,,,,,,,,,,,,,,,,,,,,,,,,,,,,,,,,,,,,,,,,,,,,,,,,,,,,,,,,,,,,,,,,,,,,,,
1768372709.498890,1768372709.499668,112.000000,0.000000,4321.538574,4317.948730,4329.230957,4323.461426,4324.230957,4337.563965,4310.256348,4331.538574,4326.538574,4348.846191,4501.410156,4528.717773,4356.282227,4444.615234,5011.000000,1.000000,34.000000,,,,0.000000,4.000000,4.000000,4.000000,4.000000,4.000000,4.000000,4.000000,4.000000,4.000000,4.000000,4.000000,4.000000,4.000000,4.000000,100.000000,,,,,,,,,,,,,,,,,,,,,,,,,,,,,,,,,,,,,,,,,,,,,,,,,,,,,,,,,,,,,,,,,,,,,,,,,,,,,,,,,,,,,,,,,,,,,,,,,,,,,,,,,,,,,,,,,,,,,
1768372709.506698,1768372709.507476,113.000000,0.000000,4317.051270,4313.077148,4323.717773,4319.871582,4323.717773,4343.205078,4312.563965,4331.282227,4328.077148,4353.717773,4501.153809,4530.128418,4360.000000,4449.358887,5420.000000,1.000000,34.000000,,,,0.000000,4.000000,4.000000,4.000000,4.000000,4.000000,4.000000,4.000000,4.000000,4.000000,4.000000,4.000000,4.000000,4.000000,4.000000,100.000000,,,,,,,,,,,,,,,,,,,,,,,,,,,,,,,,,,,,,,,,,,,,,,,,,,,,,,,,,,,,,,,,,,,,,,,,,,,,,,,,,,,,,,,,,,,,,,,,,,,,,,,,,,,,,,,,,,,,,
1768372709.514506,1768372709.515385,114.000000,0.000000,4320.000000,4308.589844,4324.487305,4317.179688,4315.256348,4337.436035,4307.051270,4330.000000,4328.717773,4357.948730,4505.512695,4536.410156,4367.436035,4458.589844,4392.000000,1.000000,34.000000,,,,0.000000,4.000000,4.000000,4.000000,4.000000,4.000000,4.000000,4.000000,4.000000,4.000000,4.000000,4.000000,4.000000,4.000000,4.000000,100.000000,,,,,,,,,,,,,,,,,,,,,,,,,,,,,,,,,,,,,,,,,,,,,,,,,,,,,,,,,,,,,,,,,,,,,,,,,,,,,,,,,,,,,,,,,,,,,,,,,,,,,,,,,,,,,,,,,,,,,
1768372709.522315,1768372709.523193,115.000000,0.000000,4327.563965,4316.666504,4334.743652,4322.948730,4312.307617,4330.128418,4304.102539,4332.051270,4334.358887,4359.487305,4510.512695,4546.153809,4372.820313,4462.692383,4676.000000,1.000000,34.000000,,,,0.000000,4.000000,4.000000,4.000000,4.000000,4.000000,4.000000,4.000000,4.000000,4.000000,4.000000,4.000000,4.000000,4.000000,4.000000,100.000000,,,,,,,,,,,,,,,,,,,,,,,,,,,,,,,,,,,,,,,,,,,,,,,,,,,,,,,,,,,,,,,,,,,,,,,,,,,,,,,,,,,,,,,,,,,,,,,,,,,,,,,,,,,,,,,,,,,,,
1768372709.530123,1768372709.531102,116.000000,0.000000,4328.846191,4321.794922,4340.769043,4327.307617,4318.205078,4338.461426,4308.077148,4328.974121,4336.282227,4357.179688,4507.692383,4545.641113,4371.025879,4461.025879,5011.000000,1.000000,34.000000,,,,0.000000,4.000000,4.000000,4.000000,4.000000,4.000000,4.000000,4.000000,4.000000,4.000000,4.000000,4.000000,4.000000,4.000000,4.000000,100.000000,,,,,,,,,,,,,,,,,,,,,,,,,,,,,,,,,,,,,,,,,,,,,,,,,,,,,,,,,,,,,,,,,,,,,,,,,,,,,,,,,,,,,,,,,,,,,,,,,,,,,,,,,,,,,,,,,,,,,
1768372709.537932,1768372709.538910,117.000000,0.000000,4324.102539,4319.871582,4336.538574,4324.743652,4320.000000,4340.128418,4303.589844,4324.615234,4330.256348,4347.948730,4504.102539,4532.179688,4362.948730,4457.948730,5420.000000,1.000000,34.000000,,,,0.000000,4.000000,4.000000,4.000000,4.000000,4.000000,4.000000,4.000000,4.000000,4.000000,4.000000,4.000000,4.000000,4.000000,4.000000,100.000000,,,,,,,,,,,,,,,,,,,,,,,,,,,,,,,,,,,,,,,,,,,,,,,,,,,,,,,,,,,,,,,,,,,,,,,,,,,,,,,,,,,,,,,,,,,,,,,,,,,,,,,,,,,,,,,,,,,,,
1768372709.545740,1768372709.546619,118.000000,0.000000,4326.922852,4323.461426,4335.641113,4325.128418,4318.974121,4333.333496,4298.205078,4326.922852,4327.436035,4343.717773,4505.256348,4530.256348,4363.077148,4458.333496,4392.000000,1.000000,34.000000,,,,0.000000,4.000000,4.000000,4.000000,4.000000,4.000000,4.000000,4.000000,4.000000,4.000000,4.000000,4.000000,4.000000,4.000000,4.000000,100.000000,,,,,,,,,,,,,,,,,,,,,,,,,,,,,,,,,,,,,,,,,,,,,,,,,,,,,,,,,,,,,,,,,,,,,,,,,,,,,,,,,,,,,,,,,,,,,,,,,,,,,,,,,,,,,,,,,,,,,
1768372709.553549,1768372709.554427,119.000000,0.000000,4333.333496,4324.615234,4340.769043,4330.128418,4320.897461,4335.769043,4303.974121,4331.282227,4333.846191,4348.205078,4507.051270,4542.307617,4369.871582,4463.846191,4676.000000,1.000000,34.000000,,,,0.000000,4.000000,4.000000,4.000000,4.000000,4.000000,4.000000,4.000000,4.000000,4.000000,4.000000,4.000000,4.000000,4.000000,4.000000,100.000000,,,,,,,,,,,,,,,,,,,,,,,,,,,,,,,,,,,,,,,,,,,,,,,,,,,,,,,,,,,,,,,,,,,,,,,,,,,,,,,,,,,,,,,,,,,,,,,,,,,,,,,,,,,,,,,,,,,,,
1768372709.561357,1768372709.562435,120.000000,0.000000,4330.641113,4318.205078,4340.512695,4328.205078,4320.384766,4341.153809,4310.128418,4333.974121,4339.615234,4348.333496,4506.282227,4546.025879,4365.897461,4466.153809,5011.000000,1.000000,34.000000,,,,0.000000,4.000000,4.000000,4.000000,4.000000,4.000000,4.000000,4.000000,4.000000,4.000000,4.000000,4.000000,4.000000,4.000000,4.000000,100.000000,,,,,,,,,,,,,,,,,,,,,,,,,,,,,,,,,,,,,,,,,,,,,,,,,,,,,,,,,,,,,,,,,,,,,,,,,,,,,,,,,,,,,,,,,,,,,,,,,,,,,,,,,,,,,,,,,,,,,
1768372709.569166,1768372709.570244,121.000000,0.000000,4327.436035,4316.666504,4336.666504,4323.974121,4319.358887,4342.179688,4310.769043,4334.743652,4337.692383,4347.820313,4504.615234,4543.717773,4363.205078,4464.102539,5420.000000,1.000000,34.000000,,,,0.000000,4.000000,4.000000,4.000000,4.000000,4.000000,4.000000,4.000000,4.000000,4.000000,4.000000,4.000000,4.000000,4.000000,4.000000,100.000000,,,,,,,,,,,,,,,,,,,,,,,,,,,,,,,,,,,,,,,,,,,,,,,,,,,,,,,,,,,,,,,,,,,,,,,,,,,,,,,,,,,,,,,,,,,,,,,,,,,,,,,,,,,,,,,,,,,,,
1768372709.576974,1768372709.578152,122.000000,0.000000,4333.077148,4322.051270,4333.974121,4327.436035,4322.692383,4339.743652,4305.256348,4331.282227,4335.897461,4350.512695,4506.410156,4540.384766,4370.256348,4463.461426,4392.000000,1.000000,34.000000,,,,0.000000,4.000000,4.000000,4.000000,4.000000,4.000000,4.000000,4.000000,4.000000,4.000000,4.000000,4.000000,4.000000,4.000000,4.000000,100.000000,,,,,,,,,,,,,,,,,,,,,,,,,,,,,,,,,,,,,,,,,,,,,,,,,,,,,,,,,,,,,,,,,,,,,,,,,,,,,,,,,,,,,,,,,,,,,,,,,,,,,,,,,,,,,,,,,,,,,
1768372709.584782,1768372709.585960,123.000000,0.000000,4338.205078,4323.717773,4332.820313,4328.077148,4325.000000,4336.922852,4297.179688,4329.230957,4338.205078,4345.512695,4507.563965,4536.025879,4369.615234,4463.589844,4676.000000,1.000000,34.000000,,,,0.000000,4.000000,4.000000,4.000000,4.000000,4.000000,4.000000,4.000000,4.000000,4.000000,4.000000,4.000000,4.000000,4.000000,4.000000,100.000000,,,,,,,,,,,,,,,,,,,,,,,,,,,,,,,,,,,,,,,,,,,,,,,,,,,,,,,,,,,,,,,,,,,,,,,,,,,,,,,,,,,,,,,,,,,,,,,,,,,,,,,,,,,,,,,,,,,,,
1768372709.592591,1768372709.593569,124.000000,0.000000,4335.384766,4321.538574,4336.410156,4324.871582,4322.179688,4336.538574,4300.512695,4332.307617,4337.948730,4346.025879,4503.589844,4536.666504,4362.820313,4462.436035,5011.000000,1.000000,34.000000,,,,0.000000,4.000000,4.000000,4.000000,4.000000,4.000000,4.000000,4.000000,4.000000,4.000000,4.000000,4.000000,4.000000,4.000000,4.000000,100.000000,,,,,,,,,,,,,,,,,,,,,,,,,,,,,,,,,,,,,,,,,,,,,,,,,,,,,,,,,,,,,,,,,,,,,,,,,,,,,,,,,,,,,,,,,,,,,,,,,,,,,,,,,,,,,,,,,,,,,
1768372709.600399,1768372709.601378,125.000000,0.000000,4332.307617,4319.358887,4337.563965,4326.025879,4317.820313,4334.102539,4302.179688,4329.615234,4333.205078,4352.948730,4497.948730,4537.436035,4361.794922,4458.846191,5420.000000,1.000000,34.000000,,,,0.000000,4.000000,4.000000,4.000000,4.000000,4.000000,4.000000,4.000000,4.000000,4.000000,4.000000,4.000000,4.000000,4.000000,4.000000,100.000000,,,,,,,,,,,,,,,,,,,,,,,,,,,,,,,,,,,,,,,,,,,,,,,,,,,,,,,,,,,,,,,,,,,,,,,,,,,,,,,,,,,,,,,,,,,,,,,,,,,,,,,,,,,,,,,,,,,,,
1768372709.608208,1768372709.609086,126.000000,0.000000,4334.487305,4320.897461,4329.230957,4329.230957,4316.153809,4331.538574,4293.333496,4325.769043,4332.179688,4350.641113,4499.230957,4534.102539,4363.589844,4455.897461,4392.000000,1.000000,34.000000,,,,0.000000,4.000000,4.000000,4.000000,4.000000,4.000000,4.000000,4.000000,4.000000,4.000000,4.000000,4.000000,4.000000,4.000000,4.000000,100.000000,,,,,,,,,,,,,,,,,,,,,,,,,,,,,,,,,,,,,,,,,,,,,,,,0.633294,1.016056,0.187077,0.152612,0.087361,0.704693,0.410746,0.254235,0.140042,0.052571,0.736008,0.490575,0.222412,0.221378,0.124171,0.307337,0.514828,0.314099,0.136880,0.047211,0.292495,0.161685,0.136134,0.097648,0.043116,0.214318,0.229390,0.212249,0.138537,0.176799,0.224011,0.199655,0.210268,0.110199,0.128513,0.304984,0.129506,0.228616,0.079698,0.087510,1.877170,0.379060,0.247108,0.136524,0.096994,0.726568,0.299100,0.319617,0.256485,0.158574,0.924186,0.527017,0.323104,0.247184,0.116294,0.998592,0.352342,0.225783,0.400744,0.164616,0.608675,0.557393,0.240216,0.189081,0.158781,1.428980,0.576654,0.240595,0.182936,0.123848
1768372709.616016,1768372709.616895,127.000000,0.000000,4341.666504,4332.179688,4329.102539,4336.282227,4323.717773,4337.051270,4298.461426,4330.128418,4336.666504,4349.871582,4508.461426,4535.641113,4369.358887,4464.615234,34.000000,1.000000,34.000000,,,,0.000000,4.000000,4.000000,4.000000,4.000000,4.000000,4.000000,4.000000,4.000000,4.000000,4.000000,4.000000,4.000000,4.000000,4.000000,100.000000,,,,,,,,,,,,,,,,,,,,,,,,,,,,,,,,,,,,,,,,,,,,,,,,,,,,,,,,,,,,,,,,,,,,,,,,,,,,,,,,,,,,,,,,,,,,,,,,,,,,,,,,,,,,,,,,,,,,,
1768372709.623825,1768372709.624503,0.000000,0.000000,4346.666504,4339.230957,4336.153809,4345.384766,4329.358887,4340.256348,4304.743652,4330.256348,4340.384766,4356.410156,4512.436035,4537.948730,4376.666504,4478.717773,4056.000000,1.000000,34.000000,,,,0.000000,4.000000,4.000000,4.000000,4.000000,4.000000,4.000000,4.000000,4.000000,4.000000,4.000000,4.000000,4.000000,4.000000,4.000000,100.000000,,,,,,,,,,,,,,,,,,,,,,,,,,,,,,,,,,,,,,,,,,,,,,,,,,,,,,,,,,,,,,,,,,,,,,,,,,,,,,,,,,,,,,,,,,,,,,,,,,,,,,,,,,,,,,,,,,,,,
1768372709.631633,1768372709.632312,1.000000,0.000000,4340.512695,4334.871582,4330.512695,4343.077148,4325.128418,4335.384766,4296.282227,4322.948730,4341.538574,4353.589844,4508.205078,4530.000000,4373.461426,4472.436035,3976.000000,1.000000,34.000000,,,,0.000000,4.000000,4.000000,4.000000,4.000000,4.000000,4.000000,4.000000,4.000000,4.000000,4.000000,4.000000,4.000000,4.000000,4.000000,100.000000,,,,,,,,,,,,,,,,,,,,,,,,,,,,,,,,,,,,,,,,,,,,,,,,,,,,,,,,,,,,,,,,,,,,,,,,,,,,,,,,,,,,,,,,,,,,,,,,,,,,,,,,,,,,,,,,,,,,,
1768372709.639441,1768372709.640220,2.000000,0.000000,4336.153809,4334.615234,4327.307617,4337.820313,4324.615234,4336.922852,4296.410156,4322.436035,4341.153809,4348.589844,4505.641113,4527.051270,4369.743652,4463.589844,3877.000000,1.000000,34.000000,,,,0.000000,4.000000,4.000000,4.000000,4.000000,4.000000,4.000000,4.000000,4.000000,4.000000,4.000000,4.000000,4.000000,4.000000,4.000000,100.000000,,,,,,,,,,,,,,,,,,,,,,,,,,,,,,,,,,,,,,,,,,,,,,,,,,,,,,,,,,,,,,,,,,,,,,,,,,,,,,,,,,,,,,,,,,,,,,,,,,,,,,,,,,,,,,,,,,,,,
1768372709.647250,1768372709.648028,3.000000,0.000000,4340.641113,4334.102539,4336.025879,4344.230957,4328.205078,4342.692383,4305.769043,4326.794922,4340.897461,4352.692383,4510.000000,4535.641113,4376.922852,4470.128418,3857.000000,1.000000,34.000000,,,,0.000000,4.000000,4.000000,4.000000,4.000000,4.000000,4.000000,4.000000,4.000000,4.000000,4.000000,4.000000,4.000000,4.000000,4.000000,100.000000,,,,,,,,,,,,,,,,,,,,,,,,,,,,,,,,,,,,,,,,,,,,,,,,,,,,,,,,,,,,,,,,,,,,,,,,,,,,,,,,,,,,,,,,,,,,,,,,,,,,,,,,,,,,,,,,,,,,,
1768372709.655058,1768372709.656037,4.000000,0.000000,4336.922852,4327.051270,4333.077148,4343.974121,4326.666504,4340.256348,4305.769043,4327.051270,4339.871582,4352.692383,4509.487305,4531.282227,4375.256348,4468.717773,3782.000000,1.000000,34.000000,,,,0.000000,4.000000,4.000000,4.000000,4.000000,4.000000,4.000000,4.000000,4.000000,4.000000,4.000000,4.000000,4.000000,4.000000,4.000000,100.000000,,,,,,,,,,,,,,,,,,,,,,,,,,,,,,,,,,,,,,,,,,,,,,,,,,,,,,,,,,,,,,,,,,,,,,,,,,,,,,,,,,,,,,,,,,,,,,,,,,,,,,,,,,,,,,,,,,,,,
1768372709.662867,1768372709.663845,5.000000,0.000000,4324.615234,4322.820313,4322.820313,4332.051270,4323.589844,4336.794922,4301.153809,4327.051270,4338.205078,4344.615234,4496.153809,4518.717773,4362.948730,4455.897461,3747.000000,1.000000,34.000000,,,,0.000000,4.000000,4.000000,4.000000,4.000000,4.000000,4.000000,4.000000,4.000000,4.000000,4.000000,4.000000,4.000000,4.000000,4.000000,100.000000,,,,,,,,,,,,,,,,,,,,,,,,,,,,,,,,,,,,,,,,,,,,,,,,,,,,,,,,,,,,,,,,,,,,,,,,,,,,,,,,,,,,,,,,,,,,,,,,,,,,,,,,,,,,,,,,,,,,,
1768372709.670675,1768372709.671753,6.000000,0.000000,4322.820313,4324.871582,4325.769043,4329.358887,4324.102539,4337.051270,4297.307617,4325.897461,4338.077148,4339.358887,4490.000000,4519.487305,4362.692383,4454.102539,3754.000000,1.000000,34.000000,,,,0.000000,4.000000,4.000000,4.000000,4.000000,4.000000,4.000000,4.000000,4.000000,4.000000,4.000000,4.000000,4.000000,4.000000,4.000000,100.000000,,,,,,,,,,,,,,,,,,,,,,,,,,,,,,,,,,,,,,,,,,,,,,,,,,,,,,,,,,,,,,,,,,,,,,,,,,,,,,,,,,,,,,,,,,,,,,,,,,,,,,,,,,,,,,,,,,,,,
1768372709.678484,1768372709.679562,7.000000,0.000000,4326.922852,4324.102539,4327.307617,4333.589844,4323.461426,4334.871582,4294.230957,4322.820313,4335.128418,4342.436035,4497.436035,4522.051270,4367.692383,4458.461426,3745.000000,1.000000,34.000000,,,,0.000000,4.000000,4.000000,4.000000,4.000000,4.000000,4.000000,4.000000,4.000000,4.000000,4.000000,4.000000,4.000000,4.000000,4.000000,100.000000,,,,,,,,,,,,,,,,,,,,,,,,,,,,,,,,,,,,,,,,,,,,,,,,,,,,,,,,,,,,,,,,,,,,,,,,,,,,,,,,,,,,,,,,,,,,,,,,,,,,,,,,,,,,,,,,,,,,,
1768372709.686292,1768372709.687570,8.000000,0.000000,4325.897461,4325.256348,4322.692383,4337.692383,4323.205078,4335.897461,4296.410156,4319.230957,4331.025879,4344.615234,4503.846191,4520.000000,4365.769043,4458.846191,3946.000000,1.000000,34.000000,,,,0.000000,4.000000,4.000000,4.000000,4.000000,4.000000,4.000000,4.000000,4.000000,4.000000,4.000000,4.000000,4.000000,4.000000,4.000000,100.000000,,,,,,,,,,,,,,,,,,,,,,,,,,,,,,,,,,,,,,,,,,,,,,,,,,,,,,,,,,,,,,,,,,,,,,,,,,,,,,,,,,,,,,,,,,,,,,,,,,,,,,,,,,,,,,,,,,,,,
1768372709.694101,1768372709.695379,9.000000,0.000000,4327.051270,4331.025879,4325.128418,4341.025879,4325.384766,4338.077148,4297.436035,4316.025879,4331.153809,4342.948730,4505.512695,4523.333496,4367.948730,4460.000000,3927.000000,1.000000,34.000000,,,,0.000000,4.000000,4.000000,4.000000,4.000000,4.000000,4.000000,4.000000,4.000000,4.000000,4.000000,4.000000,4.000000,4.000000,4.000000,100.000000,,,,,,,,,,,,,,,,,,,,,,,,,,,,,,,,,,,,,,,,,,,,,,,,,,,,,,,,,,,,,,,,,,,,,,,,,,,,,,,,,,,,,,,,,,,,,,,,,,,,,,,,,,,,,,,,,,,,,
1768372709.701909,1768372709.703087,10.000000,0.000000,4328.205078,4328.205078,4325.641113,4336.794922,4322.179688,4332.563965,4295.000000,4318.717773,4334.102539,4342.820313,4500.897461,4526.538574,4372.820313,4460.000000,4392.000000,1.000000,34.000000,,,,0.000000,4.000000,4.000000,4.000000,4.000000,4.000000,4.000000,4.000000,4.000000,4.000000,4.000000,4.000000,4.000000,4.000000,4.000000,100.000000,,,,,,,,,,,,,,,,,,,,,,,,,,,,,,,,,,,,,,,,,,,,,,,,,,,,,,,,,,,,,,,,,,,,,,,,,,,,,,,,,,,,,,,,,,,,,,,,,,,,,,,,,,,,,,,,,,,,,
1768372709.709717,1768372709.710896,11.000000,0.000000,4325.512695,4321.410156,4320.769043,4330.641113,4317.179688,4330.000000,4297.436035,4324.615234,4336.538574,4342.692383,4493.333496,4524.871582,4367.179688,4459.487305,4676.000000,1.000000,34.000000,,,,0.000000,4.000000,4.000000,4.000000,4.000000,4.000000,4.000000,4.000000,4.000000,4.000000,4.000000,4.000000,4.000000,4.000000,4.000000,100.000000,,,,,,,,,,,,,,,,,,,,,,,,,,,,,,,,,,,,,,,,,,,,,,,,,,,,,,,,,,,,,,,,,,,,,,,,,,,,,,,,,,,,,,,,,,,,,,,,,,,,,,,,,,,,,,,,,,,,,
1768372709.717526,1768372709.718904,12.000000,0.000000,4323.846191,4317.820313,4320.128418,4328.846191,4314.102539,4335.128418,4298.846191,4323.589844,4338.077148,4340.641113,4492.051270,4522.692383,4360.128418,4459.871582,5011.000000,1.000000,34.000000,,,,0.000000,4.000000,4.000000,4.000000,4.000000,4.000000,4.000000,4.000000,4.000000,4.000000,4.000000,4.000000,4.000000,4.000000,4.000000,100.000000,,,,,,,,,,,,,,,,,,,,,,,,,,,,,,,,,,,,,,,,,,,,,,,,,,,,,,,,,,,,,,,,,,,,,,,,,,,,,,,,,,,,,,,,,,,,,,,,,,,,,,,,,,,,,,,,,,,,,
1768372709.725334,1768372709.726712,13.000000,0.000000,4323.717773,4317.051270,4321.153809,4328.974121,4312.948730,4335.641113,4295.769043,4318.589844,4336.538574,4338.974121,4496.666504,4520.641113,4367.051270,4457.563965,5424.000000,1.000000,34.000000,,,,0.000000,4.000000,4.000000,4.000000,4.000000,4.000000,4.000000,4.000000,4.000000,4.000000,4.000000,4.000000,4.000000,4.000000,4.000000,100.000000,,,,,,,,,,,,,,,,,,,,,,,,,,,,,,,,,,,,,,,,,,,,,,,,,,,,,,,,,,,,,,,,,,,,,,,,,,,,,,,,,,,,,,,,,,,,,,,,,,,,,,,,,,,,,,,,,,,,,
1768372709.733143,1768372709.734421,14.000000,0.000000,4330.769043,4322.563965,4323.333496,4334.871582,4319.743652,4336.538574,4296.282227,4316.666504,4333.461426,4342.051270,4500.384766,4520.256348,4377.051270,4463.846191,4392.000000,1.000000,34.000000,,,,0.000000,4.000000,4.000000,4.000000,4.000000,4.000000,4.000000,4.000000,4.000000,4.000000,4.000000,4.000000,4.000000,4.000000,4.000000,100.000000,1.000000,100.000000,4.000000,4.000000,4.000000,4.000000,4.000000,4.000000,4.000000,4.000000,4.000000,4.000000,4.000000,4.000000,4.000000,4.000000,,,,,,,,,,,,,,,,,,,,,,,,,,,,,,,,0.628201,0.913637,0.220273,0.182898,0.102802,0.563427,0.371370,0.274124,0.146101,0.050627,0.773833,0.426158,0.215981,0.240731,0.143833,0.299526,0.453033,0.300414,0.136841,0.048917,0.217007,0.151437,0.129729,0.076247,0.041012,0.201962,0.225251,0.223459,0.115389,0.169567,0.222206,0.183143,0.197767,0.096186,0.117703,0.281115,0.153908,0.222772,0.093077,0.084451,1.707791,0.342508,0.194501,0.137655,0.092909,0.703297,0.409191,0.298049,0.235041,0.150995,0.868882,0.655159,0.302385,0.231546,0.112840,1.123869,0.485421,0.235621,0.332746,0.159396,0.615962,0.576195,0.234870,0.181048,0.151407,1.425051,0.551542,0.216106,0.201811,0.128457
1768372709.740951,1768372709.742229,15.000000,0.000000,4343.717773,4329.615234,4333.846191,4345.384766,4328.461426,4343.205078,4300.641113,4318.461426,4338.974121,4345.000000,4506.025879,4528.461426,4381.153809,4478.077148,4676.000000,1.000000,34.000000,,,,0.000000,4.000000,4.000000,4.000000,4.000000,4.000000,4.000000,4.000000,4.000000,4.000000,4.000000,4.000000,4.000000,4.000000,4.000000,100.000000,,,,,,,,,,,,,,,,,,,,,,,,,,,,,,,,,,,,,,,,,,,,,,,,,,,,,,,,,,,,,,,,,,,,,,,,,,,,,,,,,,,,,,,,,,,,,,,,,,,,,,,,,,,,,,,,,,,,,
1768372709.748760,1768372709.749838,16.000000,0.000000,4344.871582,4329.615234,4338.589844,4346.025879,4327.436035,4342.820313,4301.538574,4321.794922,4343.461426,4343.333496,4508.589844,4533.461426,4379.102539,4476.282227,0.000000,1.000000,34.000000,,,,0.000000,4.000000,4.000000,4.000000,4.000000,4.000000,4.000000,4.000000,4.000000,4.000000,4.000000,4.000000,4.000000,4.000000,4.000000,100.000000,,,,,,,,,,,,,,,,,,,,,,,,,,,,,,,,,,,,,,,,,,,,,,,,,,,,,,,,,,,,,,,,,,,,,,,,,,,,,,,,,,,,,,,,,,,,,,,,,,,,,,,,,,,,,,,,,,,,,
1768372709.756568,1768372709.757646,17.000000,0.000000,4337.179688,4324.358887,4328.717773,4337.307617,4322.179688,4337.436035,4299.102539,4323.589844,4340.384766,4342.179688,4505.256348,4525.384766,4375.641113,4465.384766,0.000000,1.000000,34.000000,,,,0.000000,4.000000,4.000000,4.000000,4.000000,4.000000,4.000000,4.000000,4.000000,4.000000,4.000000,4.000000,4.000000,4.000000,4.000000,100.000000,,,,,,,,,,,,,,,,,,,,,,,,,,,,,,,,,,,,,,,,,,,,,,,,,,,,,,,,,,,,,,,,,,,,,,,,,,,,,,,,,,,,,,,,,,,,,,,,,,,,,,,,,,,,,,,,,,,,,
1768372709.764377,1768372709.765355,18.000000,0.000000,4332.051270,4321.538574,4323.205078,4333.333496,4321.666504,4337.436035,4295.769043,4320.641113,4339.871582,4342.179688,4505.128418,4521.538574,4375.641113,4466.410156,0.000000,1.000000,34.000000,,,,0.000000,4.000000,4.000000,4.000000,4.000000,4.000000,4.000000,4.000000,4.000000,4.000000,4.000000,4.000000,4.000000,4.000000,4.000000,100.000000,,,,,,,,,,,,,,,,,,,,,,,,,,,,,,,,,,,,,,,,,,,,,,,,,,,,,,,,,,,,,,,,,,,,,,,,,,,,,,,,,,,,,,,,,,,,,,,,,,,,,,,,,,,,,,,,,,,,,
1768372709.772185,1768372709.773163,19.000000,0.000000,4330.256348,4323.077148,4327.436035,4338.077148,4321.153809,4338.974121,4296.666504,4317.436035,4341.025879,4339.615234,4506.794922,4526.410156,4374.230957,4468.205078,0.000000,1.000000,34.000000,,,,0.000000,4.000000,4.000000,4.000000,4.000000,4.000000,4.000000,4.000000,4.000000,4.000000,4.000000,4.000000,4.000000,4.000000,4.000000,100.000000,,,,,,,,,,,,,,,,,,,,,,,,,,,,,,,,,,,,,,,,,,,,,,,,,,,,,,,,,,,,,,,,,,,,,,,,,,,,,,,,,,,,,,,,,,,,,,,,,,,,,,,,,,,,,,,,,,,,,
1768372709.779993,1768372709.781172,20.000000,0.000000,4331.153809,4325.000000,4328.589844,4342.692383,4320.897461,4342.051270,4303.589844,4320.897461,4340.769043,4339.230957,4506.153809,4526.410156,4373.974121,4465.769043,0.000000,1.000000,34.000000,,,,0.000000,4.000000,4.000000,4.000000,4.000000,4.000000,4.000000,4.000000,4.000000,4.000000,4.000000,4.000000,4.000000,4.000000,4.000000,100.000000,,,,,,,,,,,,,,,,,,,,,,,,,,,,,,,,,,,,,,,,,,,,,,,,,,,,,,,,,,,,,,,,,,,,,,,,,,,,,,,,,,,,,,,,,,,,,,,,,,,,,,,,,,,,,,,,,,,,,
1768372709.787802,1768372709.788980,21.000000,0.000000,4334.487305,4324.358887,4326.538574,4342.179688,4321.410156,4342.563965,4303.846191,4322.948730,4340.769043,4345.384766,4504.743652,4522.692383,4377.563965,4470.128418,0.000000,1.000000,34.000000,,,,0.000000,4.000000,4.000000,4.000000,4.000000,4.000000,4.000000,4.000000,4.000000,4.000000,4.000000,4.000000,4.000000,4.000000,4.000000,100.000000,,,,,,,,,,,,,,,,,,,,,,,,,,,,,,,,,,,,,,,,,,,,,,,,,,,,,,,,,,,,,,,,,,,,,,,,,,,,,,,,,,,,,,,,,,,,,,,,,,,,,,,,,,,,,,,,,,,,,
1768372709.795610,1768372709.796689,22.000000,0.000000,4335.512695,4320.512695,4325.128418,4336.282227,4316.922852,4339.230957,4294.615234,4317.692383,4340.897461,4341.538574,4502.820313,4523.205078,4374.615234,4474.871582,0.000000,1.000000,34.000000,,,,0.000000,4.000000,4.000000,4.000000,4.000000,4.000000,4.000000,4.000000,4.000000,4.000000,4.000000,4.000000,4.000000,4.000000,4.000000,100.000000,,,,,,,,,,,,,,,,,,,,,,,,,,,,,,,,,,,,,,,,,,,,,,,,,,,,,,,,,,,,,,,,,,,,,,,,,,,,,,,,,,,,,,,,,,,,,,,,,,,,,,,,,,,,,,,,,,,,,
1768372709.803419,1768372709.804497,23.000000,0.000000,4332.692383,4314.615234,4326.025879,4333.461426,4312.820313,4338.461426,4292.436035,4317.051270,4340.897461,4329.102539,4500.897461,4525.512695,4366.282227,4471.153809,0.000000,1.000000,34.000000,,,,0.000000,4.000000,4.000000,4.000000,4.000000,4.000000,4.000000,4.000000,4.000000,4.000000,4.000000,4.000000,4.000000,4.000000,4.000000,100.000000,,,,,,,,,,,,,,,,,,,,,,,,,,,,,,,,,,,,,,,,,,,,,,,,,,,,,,,,,,,,,,,,,,,,,,,,,,,,,,,,,,,,,,,,,,,,,,,,,,,,,,,,,,,,,,,,,,,,,
1768372709.811227,1768372709.812106,24.000000,0.000000,4329.871582,4311.025879,4325.128418,4333.333496,4315.128418,4340.384766,4298.333496,4322.179688,4340.769043,4328.589844,4495.897461,4526.282227,4365.256348,4463.974121,0.000000,1.000000,34.000000,,,,0.000000,4.000000,4.000000,4.000000,4.000000,4.000000,4.000000,4.000000,4.000000,4.000000,4.000000,4.000000,4.000000,4.000000,4.000000,100.000000,,,,,,,,,,,,,,,,,,,,,,,,,,,,,,,,,,,,,,,,,,,,,,,,,,,,,,,,,,,,,,,,,,,,,,,,,,,,,,,,,,,,,,,,,,,,,,,,,,,,,,,,,,,,,,,,,,,,,
1768372709.819036,1768372709.819914,25.000000,0.000000,4323.077148,4309.743652,4320.128418,4327.692383,4314.230957,4341.666504,4301.538574,4324.743652,4341.922852,4333.846191,4490.256348,4523.461426,4364.615234,4458.461426,0.000000,1.000000,34.000000,,,,0.000000,4.000000,4.000000,4.000000,4.000000,4.000000,4.000000,4.000000,4.000000,4.000000,4.000000,4.000000,4.000000,4.000000,4.000000,100.000000,,,,,,,,,,,,,,,,,,,,,,,,,,,,,,,,,,,,,,,,,,,,,,,,,,,,,,,,,,,,,,,,,,,,,,,,,,,,,,,,,,,,,,,,,,,,,,,,,,,,,,,,,,,,,,,,,,,,,
1768372709.826844,1768372709.827623,26.000000,0.000000,4322.179688,4308.205078,4321.282227,4324.358887,4311.410156,4342.820313,4302.948730,4330.384766,4349.358887,4337.948730,4498.461426,4525.128418,4366.538574,4464.358887,0.000000,1.000000,34.000000,,,,0.000000,4.000000,4.000000,4.000000,4.000000,4.000000,4.000000,4.000000,4.000000,4.000000,4.000000,4.000000,4.000000,4.000000,4.000000,100.000000,,,,,,,,,,,,,,,,,,,,,,,,,,,,,,,,,,,,,,,,,,,,,,,,,,,,,,,,,,,,,,,,,,,,,,,,,,,,,,,,,,,,,,,,,,,,,,,,,,,,,,,,,,,,,,,,,,,,,
1768372709.834653,1768372709.835431,27.000000,0.000000,4336.282227,4316.794922,4328.205078,4334.615234,4317.179688,4342.563965,4303.461426,4336.538574,4359.871582,4347.820313,4514.871582,4537.948730,4384.230957,4479.487305,0.000000,1.000000,34.000000,,,,0.000000,4.000000,4.000000,4.000000,4.000000,4.000000,4.000000,4.000000,4.000000,4.000000,4.000000,4.000000,4.000000,4.000000,4.000000,100.000000,,,,,,,,,,,,,,,,,,,,,,,,,,,,,,,,,,,,,,,,,,,,,,,,,,,,,,,,,,,,,,,,,,,,,,,,,,,,,,,,,,,,,,,,,,,,,,,,,,,,,,,,,,,,,,,,,,,,,
1768372709.842461,1768372709.843439,28.000000,0.000000,4345.512695,4328.974121,4329.358887,4345.256348,4320.897461,4338.846191,4298.461426,4327.563965,4354.871582,4349.615234,4514.102539,4538.846191,4390.384766,4481.666504,0.000000,1.000000,34.000000,,,,0.000000,4.000000,4.000000,4.000000,4.000000,4.000000,4.000000,4.000000,4.000000,4.000000,4.000000,4.000000,4.000000,4.000000,4.000000,100.000000,,,,,,,,,,,,,,,,,,,,,,,,,,,,,,,,,,,,,,,,,,,,,,,,,,,,,,,,,,,,,,,,,,,,,,,,,,,,,,,,,,,,,,,,,,,,,,,,,,,,,,,,,,,,,,,,,,,,,
1768372709.850269,1768372709.851248,29.000000,0.000000,4341.666504,4326.794922,4327.051270,4342.820313,4316.794922,4339.102539,4295.256348,4319.615234,4343.333496,4341.666504,4505.512695,4526.666504,4379.487305,4473.077148,0.000000,1.000000,34.000000,,,,0.000000,4.000000,4.000000,4.000000,4.000000,4.000000,4.000000,4.000000,4.000000,4.000000,4.000000,4.000000,4.000000,4.000000,4.000000,100.000000,,,,,,,,,,,,,,,,,,,,,,,,,,,,,,,,,,,,,,,,,,,,,,,,,,,,,,,,,,,,,,,,,,,,,,,,,,,,,,,,,,,,,,,,,,,,,,,,,,,,,,,,,,,,,,,,,,,,,
1768372709.858078,1768372709.859156,30.000000,0.000000,4340.512695,4321.666504,4328.205078,4340.256348,4317.948730,4342.692383,4297.820313,4323.589844,4345.128418,4339.743652,4506.410156,4524.743652,4378.333496,4471.922852,0.000000,1.000000,34.000000,,,,0.000000,4.000000,4.000000,4.000000,4.000000,4.000000,4.000000,4.000000,4.000000,4.000000,4.000000,4.000000,4.000000,4.000000,4.000000,100.000000,,,,,,,,,,,,,,,,,,,,,,,,,,,,,,,,,,,,,,,,,,,,,,,,0.587268,0.758908,0.261010,0.223945,0.124040,0.510463,0.331282,0.295129,0.156498,0.053650,0.778183,0.351217,0.216026,0.266167,0.171377,0.305424,0.383712,0.282487,0.143124,0.054998,0.156706,0.140959,0.126826,0.058276,0.040564,0.179195,0.211545,0.224681,0.094316,0.156346,0.224810,0.159006,0.188917,0.088508,0.108754,0.274317,0.187927,0.215171,0.108805,0.080990,1.425040,0.306181,0.143540,0.142712,0.089485,0.691891,0.521204,0.251370,0.218171,0.144133,0.779946,0.752236,0.279426,0.229497,0.110580,1.297881,0.629399,0.258692,0.309250,0.155198,0.584764,0.573025,0.225251,0.181014,0.141676,1.409615,0.492821,0.194937,0.239627,0.139660
